Customer	Biocomposite Kenaf_1
TestDate	2022/12/15
Coil No/Packet No	Uday
Type	Flat
Size(mm)	28*3.78
So(mm^2)	105.84
Lo(mm)	9
Lu(mm)	
A(%)	/
Su(mm^2)	/
Z(%)	/
Fm(kN)	2.876
Rm(MPa)	27
FeH(kN)	0.955
ReH(MPa)	9
FeL(kN)	2.419
ReL(MPa)	23
Fp(kN)	2.419
Rp(MPa)	23
Ft(kN)	0.346
Rt(MPa)	3
E(GPa)	1


-----------Curve----------
Time	Load	Elong	Disp	Stress	Strain	Width
0	0.001	0.00160	0.000	0.007	0.006	0.000
0	0.000	0.00160	0.000	0.000	0.006	0.000
.01	0.001	0.00140	0.000	0.007	0.006	0.000
.02	0.002	0.00130	0.000	0.014	0.005	0.000
.03	0.001	0.00120	0.000	0.007	0.005	0.000
.04	0.000	0.00110	0.000	0.000	0.004	0.000
.05	0.001	0.00110	0.000	0.007	0.004	0.000
.06	0.001	0.00110	0.000	0.007	0.004	0.000
.07	0.002	0.00110	0.001	0.014	0.004	0.000
.08	0.004	0.00110	0.001	0.035	0.004	0.000
.09	0.004	0.00120	0.002	0.042	0.005	0.000
.1	0.006	0.00130	0.002	0.056	0.005	0.000
.109	0.010	0.00140	0.003	0.091	0.006	0.000
.119	0.010	0.00150	0.003	0.097	0.006	0.000
.129	0.012	0.00170	0.003	0.111	0.007	0.000
.139	0.013	0.00180	0.004	0.126	0.007	0.000
.149	0.013	0.00200	0.004	0.126	0.008	0.000
.159	0.014	0.00220	0.004	0.133	0.009	0.000
.169	0.016	0.00240	0.005	0.154	0.010	0.000
.179	0.018	0.00270	0.005	0.168	0.011	0.000
.19	0.018	0.00290	0.005	0.168	0.012	0.000
.2	0.019	0.00320	0.006	0.175	0.013	0.000
.21	0.020	0.00350	0.006	0.189	0.014	0.000
.22	0.021	0.00370	0.006	0.196	0.015	0.000
.23	0.022	0.00400	0.006	0.210	0.016	0.000
.24	0.024	0.00430	0.007	0.231	0.017	0.000
.25	0.025	0.00460	0.007	0.238	0.018	0.000
.26	0.026	0.00490	0.007	0.245	0.020	0.000
.27	0.026	0.00520	0.008	0.245	0.021	0.000
.28	0.027	0.00550	0.008	0.259	0.022	0.000
.29	0.030	0.00580	0.008	0.280	0.023	0.000
.3	0.030	0.00620	0.009	0.280	0.025	0.000
.31	0.031	0.00650	0.009	0.294	0.026	0.000
.32	0.033	0.00680	0.009	0.315	0.027	0.000
.33	0.033	0.00720	0.010	0.315	0.029	0.000
.34	0.035	0.00750	0.010	0.329	0.030	0.000
.35	0.036	0.00780	0.010	0.335	0.031	0.000
.359	0.037	0.00810	0.011	0.350	0.032	0.000
.369	0.038	0.00850	0.011	0.356	0.034	0.000
.379	0.038	0.00880	0.011	0.364	0.035	0.000
.389	0.041	0.00920	0.012	0.385	0.037	0.000
.399	0.041	0.00950	0.012	0.391	0.038	0.000
.409	0.043	0.00990	0.012	0.405	0.040	0.000
.419	0.044	0.01020	0.013	0.420	0.041	0.000
.429	0.045	0.01050	0.013	0.426	0.042	0.000
.44	0.046	0.01090	0.013	0.434	0.044	0.000
.45	0.047	0.01130	0.014	0.448	0.045	0.000
.46	0.048	0.01160	0.014	0.454	0.046	0.000
.47	0.049	0.01200	0.014	0.461	0.048	0.000
.48	0.050	0.01230	0.015	0.475	0.049	0.000
.49	0.051	0.01270	0.015	0.483	0.051	0.000
.5	0.052	0.01300	0.015	0.496	0.052	0.000
.51	0.054	0.01340	0.016	0.510	0.054	0.000
.52	0.055	0.01370	0.016	0.518	0.055	0.000
.53	0.056	0.01400	0.016	0.524	0.056	0.000
.54	0.057	0.01440	0.017	0.539	0.058	0.000
.55	0.058	0.01470	0.017	0.553	0.059	0.000
.56	0.059	0.01510	0.017	0.559	0.060	0.000
.57	0.059	0.01540	0.018	0.559	0.062	0.000
.58	0.061	0.01570	0.018	0.574	0.063	0.000
.59	0.063	0.01610	0.018	0.594	0.064	0.000
.6	0.064	0.01640	0.019	0.601	0.066	0.000
.609	0.064	0.01670	0.019	0.608	0.067	0.000
.619	0.066	0.01710	0.019	0.623	0.068	0.000
.629	0.067	0.01740	0.020	0.629	0.070	0.000
.639	0.067	0.01770	0.020	0.636	0.071	0.000
.649	0.069	0.01810	0.020	0.650	0.072	0.000
.659	0.070	0.01840	0.021	0.658	0.074	0.000
.669	0.070	0.01870	0.021	0.664	0.075	0.000
.679	0.071	0.01910	0.021	0.671	0.076	0.000
.69	0.072	0.01940	0.022	0.685	0.078	0.000
.7	0.073	0.01980	0.022	0.693	0.079	0.000
.71	0.074	0.02010	0.022	0.699	0.080	0.000
.72	0.076	0.02040	0.023	0.720	0.082	0.000
.73	0.077	0.02080	0.023	0.728	0.083	0.000
.74	0.077	0.02110	0.023	0.728	0.084	0.000
.75	0.078	0.02140	0.024	0.741	0.086	0.000
.76	0.079	0.02180	0.024	0.748	0.087	0.000
.77	0.081	0.02210	0.024	0.762	0.088	0.000
.78	0.081	0.02240	0.025	0.769	0.090	0.000
.79	0.082	0.02270	0.025	0.776	0.091	0.000
.8	0.084	0.02310	0.025	0.790	0.092	0.000
.81	0.084	0.02340	0.026	0.797	0.094	0.000
.82	0.085	0.02370	0.026	0.804	0.095	0.000
.83	0.086	0.02410	0.026	0.812	0.096	0.000
.84	0.087	0.02440	0.027	0.825	0.098	0.000
.85	0.088	0.02470	0.027	0.832	0.099	0.000
.859	0.090	0.02500	0.027	0.847	0.100	0.000
.869	0.090	0.02530	0.028	0.853	0.101	0.000
.879	0.090	0.02570	0.028	0.853	0.103	0.000
.889	0.092	0.02600	0.028	0.867	0.104	0.000
.899	0.093	0.02630	0.029	0.882	0.105	0.000
.909	0.093	0.02670	0.029	0.882	0.107	0.000
.919	0.095	0.02700	0.029	0.895	0.108	0.000
.929	0.096	0.02730	0.030	0.909	0.109	0.000
.94	0.095	0.02770	0.030	0.902	0.111	0.000
.95	0.098	0.02800	0.030	0.923	0.112	0.000
.96	0.099	0.02830	0.031	0.937	0.113	0.000
.97	0.098	0.02870	0.031	0.930	0.115	0.000
.98	0.099	0.02900	0.031	0.937	0.116	0.000
.99	0.101	0.02930	0.032	0.958	0.117	0.000
1	0.103	0.02960	0.032	0.972	0.118	0.000
1.01	0.103	0.03000	0.032	0.972	0.120	0.000
1.02	0.104	0.03030	0.033	0.979	0.121	0.000
1.03	0.104	0.03060	0.033	0.986	0.122	0.000
1.04	0.106	0.03100	0.033	1.000	0.124	0.000
1.05	0.107	0.03130	0.034	1.007	0.125	0.000
1.06	0.107	0.03160	0.034	1.014	0.126	0.000
1.07	0.107	0.03200	0.034	1.014	0.128	0.000
1.08	0.108	0.03230	0.035	1.021	0.129	0.000
1.09	0.110	0.03260	0.035	1.042	0.130	0.000
1.1	0.110	0.03290	0.035	1.042	0.132	0.000
1.109	0.112	0.03320	0.036	1.056	0.133	0.000
1.119	0.112	0.03360	0.036	1.063	0.134	0.000
1.129	0.112	0.03390	0.036	1.063	0.136	0.000
1.139	0.115	0.03420	0.037	1.084	0.137	0.000
1.149	0.116	0.03460	0.037	1.091	0.138	0.000
1.159	0.116	0.03490	0.037	1.091	0.140	0.000
1.169	0.116	0.03520	0.038	1.098	0.141	0.000
1.179	0.117	0.03560	0.038	1.104	0.142	0.000
1.19	0.118	0.03590	0.038	1.119	0.144	0.000
1.2	0.118	0.03630	0.039	1.119	0.145	0.000
1.21	0.118	0.03660	0.039	1.119	0.146	0.000
1.22	0.120	0.03700	0.039	1.133	0.148	0.000
1.23	0.121	0.03730	0.040	1.139	0.149	0.000
1.24	0.121	0.03760	0.040	1.139	0.150	0.000
1.25	0.122	0.03800	0.040	1.154	0.152	0.000
1.26	0.124	0.03830	0.041	1.174	0.153	0.000
1.27	0.124	0.03860	0.041	1.174	0.154	0.000
1.28	0.124	0.03900	0.041	1.174	0.156	0.000
1.29	0.126	0.03930	0.042	1.189	0.157	0.000
1.3	0.127	0.03960	0.042	1.196	0.158	0.000
1.31	0.127	0.04000	0.042	1.196	0.160	0.000
1.32	0.128	0.04030	0.043	1.209	0.161	0.000
1.33	0.130	0.04060	0.043	1.224	0.162	0.000
1.34	0.130	0.04100	0.043	1.224	0.164	0.000
1.35	0.131	0.04130	0.044	1.238	0.165	0.000
1.359	0.131	0.04160	0.044	1.238	0.166	0.000
1.369	0.131	0.04200	0.044	1.238	0.168	0.000
1.379	0.133	0.04230	0.045	1.259	0.169	0.000
1.389	0.133	0.04260	0.045	1.259	0.170	0.000
1.399	0.134	0.04300	0.045	1.266	0.172	0.000
1.409	0.135	0.04330	0.046	1.279	0.173	0.000
1.419	0.135	0.04360	0.046	1.279	0.174	0.000
1.429	0.137	0.04400	0.046	1.293	0.176	0.000
1.44	0.138	0.04430	0.047	1.301	0.177	0.000
1.45	0.138	0.04470	0.047	1.301	0.179	0.000
1.46	0.140	0.04500	0.047	1.322	0.180	0.000
1.47	0.141	0.04540	0.048	1.328	0.182	0.000
1.48	0.141	0.04570	0.048	1.328	0.183	0.000
1.49	0.141	0.04600	0.048	1.336	0.184	0.000
1.5	0.143	0.04640	0.049	1.349	0.186	0.000
1.51	0.143	0.04670	0.049	1.349	0.187	0.000
1.52	0.144	0.04700	0.049	1.357	0.188	0.000
1.53	0.145	0.04740	0.050	1.371	0.190	0.000
1.54	0.146	0.04770	0.050	1.378	0.191	0.000
1.55	0.147	0.04800	0.050	1.392	0.192	0.000
1.56	0.147	0.04840	0.051	1.392	0.194	0.000
1.57	0.147	0.04870	0.051	1.392	0.195	0.000
1.58	0.149	0.04910	0.051	1.406	0.196	0.000
1.59	0.150	0.04940	0.052	1.419	0.198	0.000
1.6	0.150	0.04970	0.052	1.419	0.199	0.000
1.609	0.151	0.05000	0.052	1.427	0.200	0.000
1.619	0.153	0.05040	0.053	1.441	0.202	0.000
1.629	0.153	0.05070	0.053	1.447	0.203	0.000
1.639	0.154	0.05100	0.053	1.454	0.204	0.000
1.649	0.155	0.05140	0.054	1.462	0.206	0.000
1.659	0.155	0.05170	0.054	1.468	0.207	0.000
1.669	0.157	0.05200	0.054	1.482	0.208	0.000
1.679	0.157	0.05240	0.055	1.482	0.210	0.000
1.69	0.158	0.05270	0.055	1.490	0.211	0.000
1.7	0.159	0.05310	0.055	1.503	0.212	0.000
1.71	0.159	0.05340	0.056	1.503	0.214	0.000
1.72	0.159	0.05370	0.056	1.503	0.215	0.000
1.73	0.161	0.05410	0.056	1.525	0.216	0.000
1.74	0.163	0.05440	0.057	1.538	0.218	0.000
1.75	0.163	0.05470	0.057	1.538	0.219	0.000
1.76	0.163	0.05510	0.057	1.538	0.220	0.000
1.77	0.164	0.05540	0.058	1.546	0.222	0.000
1.78	0.166	0.05570	0.058	1.567	0.223	0.000
1.79	0.167	0.05610	0.058	1.573	0.224	0.000
1.8	0.167	0.05640	0.059	1.573	0.226	0.000
1.81	0.167	0.05670	0.059	1.581	0.227	0.000
1.82	0.169	0.05710	0.059	1.595	0.228	0.000
1.83	0.169	0.05740	0.060	1.601	0.230	0.000
1.84	0.170	0.05770	0.060	1.608	0.231	0.000
1.85	0.171	0.05800	0.060	1.616	0.232	0.000
1.859	0.172	0.05830	0.061	1.622	0.233	0.000
1.869	0.172	0.05870	0.061	1.622	0.235	0.000
1.879	0.172	0.05900	0.061	1.630	0.236	0.000
1.889	0.174	0.05930	0.062	1.643	0.237	0.000
1.899	0.175	0.05970	0.062	1.651	0.239	0.000
1.909	0.176	0.06000	0.062	1.665	0.240	0.000
1.919	0.177	0.06030	0.063	1.671	0.241	0.000
1.929	0.178	0.06070	0.063	1.678	0.243	0.000
1.94	0.178	0.06100	0.063	1.678	0.244	0.000
1.95	0.178	0.06140	0.064	1.686	0.246	0.000
1.96	0.180	0.06170	0.064	1.700	0.247	0.000
1.97	0.181	0.06200	0.064	1.706	0.248	0.000
1.98	0.181	0.06230	0.065	1.713	0.249	0.000
1.99	0.182	0.06270	0.065	1.721	0.251	0.000
2	0.183	0.06300	0.065	1.727	0.252	0.000
2.01	0.184	0.06330	0.066	1.735	0.253	0.000
2.02	0.185	0.06370	0.066	1.748	0.255	0.000
2.03	0.185	0.06400	0.066	1.748	0.256	0.000
2.04	0.185	0.06430	0.067	1.748	0.257	0.000
2.05	0.186	0.06470	0.067	1.762	0.259	0.000
2.06	0.188	0.06500	0.067	1.776	0.260	0.000
2.07	0.189	0.06530	0.068	1.783	0.261	0.000
2.08	0.190	0.06570	0.068	1.790	0.263	0.000
2.09	0.191	0.06600	0.068	1.805	0.264	0.000
2.1	0.192	0.06630	0.069	1.811	0.265	0.000
2.109	0.192	0.06660	0.069	1.818	0.266	0.000
2.119	0.192	0.06700	0.069	1.818	0.268	0.000
2.129	0.193	0.06730	0.070	1.825	0.269	0.000
2.139	0.195	0.06760	0.070	1.840	0.270	0.000
2.149	0.195	0.06790	0.070	1.846	0.272	0.000
2.159	0.196	0.06830	0.071	1.853	0.273	0.000
2.169	0.197	0.06860	0.071	1.860	0.274	0.000
2.179	0.198	0.06890	0.071	1.867	0.276	0.000
2.19	0.198	0.06930	0.072	1.867	0.277	0.000
2.2	0.199	0.06960	0.072	1.881	0.278	0.000
2.21	0.201	0.07000	0.072	1.895	0.280	0.000
2.22	0.201	0.07030	0.073	1.895	0.281	0.000
2.23	0.201	0.07060	0.073	1.902	0.282	0.000
2.24	0.203	0.07100	0.073	1.916	0.284	0.000
2.25	0.204	0.07130	0.074	1.923	0.285	0.000
2.26	0.204	0.07160	0.074	1.930	0.286	0.000
2.27	0.205	0.07200	0.074	1.937	0.288	0.000
2.28	0.205	0.07230	0.075	1.937	0.289	0.000
2.29	0.206	0.07260	0.075	1.944	0.290	0.000
2.3	0.208	0.07300	0.075	1.965	0.292	0.000
2.31	0.209	0.07330	0.076	1.972	0.293	0.000
2.32	0.208	0.07360	0.076	1.965	0.294	0.000
2.33	0.209	0.07400	0.076	1.979	0.296	0.000
2.34	0.211	0.07430	0.077	1.993	0.297	0.000
2.35	0.212	0.07460	0.077	2.000	0.298	0.000
2.359	0.212	0.07490	0.077	2.000	0.300	0.000
2.369	0.212	0.07530	0.078	2.000	0.301	0.000
2.379	0.214	0.07560	0.078	2.021	0.302	0.000
2.389	0.215	0.07590	0.078	2.035	0.304	0.000
2.399	0.215	0.07630	0.079	2.035	0.305	0.000
2.409	0.215	0.07660	0.079	2.035	0.306	0.000
2.419	0.216	0.07690	0.079	2.042	0.308	0.000
2.429	0.218	0.07730	0.080	2.056	0.309	0.000
2.44	0.219	0.07770	0.080	2.070	0.311	0.000
2.45	0.220	0.07800	0.080	2.077	0.312	0.000
2.46	0.220	0.07830	0.081	2.077	0.313	0.000
2.47	0.221	0.07870	0.081	2.091	0.315	0.000
2.48	0.222	0.07900	0.081	2.098	0.316	0.000
2.49	0.221	0.07930	0.082	2.091	0.317	0.000
2.5	0.223	0.07970	0.082	2.112	0.319	0.000
2.51	0.225	0.08000	0.082	2.126	0.320	0.000
2.52	0.225	0.08030	0.083	2.126	0.321	0.000
2.53	0.226	0.08070	0.083	2.132	0.323	0.000
2.54	0.227	0.08100	0.083	2.140	0.324	0.000
2.55	0.228	0.08130	0.084	2.154	0.325	0.000
2.56	0.229	0.08170	0.084	2.161	0.327	0.000
2.57	0.229	0.08200	0.084	2.161	0.328	0.000
2.58	0.229	0.08230	0.085	2.168	0.329	0.000
2.59	0.232	0.08270	0.085	2.189	0.331	0.000
2.6	0.232	0.08300	0.085	2.196	0.332	0.000
2.609	0.232	0.08330	0.086	2.196	0.333	0.000
2.619	0.234	0.08370	0.086	2.210	0.335	0.000
2.629	0.235	0.08400	0.086	2.217	0.336	0.000
2.639	0.235	0.08430	0.087	2.217	0.337	0.000
2.649	0.235	0.08470	0.087	2.224	0.339	0.000
2.659	0.237	0.08500	0.087	2.238	0.340	0.000
2.669	0.237	0.08530	0.088	2.238	0.341	0.000
2.679	0.237	0.08570	0.088	2.238	0.343	0.000
2.69	0.238	0.08600	0.088	2.252	0.344	0.000
2.7	0.240	0.08640	0.089	2.266	0.346	0.000
2.71	0.240	0.08670	0.089	2.266	0.347	0.000
2.72	0.241	0.08700	0.089	2.273	0.348	0.000
2.73	0.242	0.08740	0.090	2.286	0.350	0.000
2.74	0.243	0.08770	0.090	2.294	0.351	0.000
2.75	0.243	0.08800	0.090	2.301	0.352	0.000
2.76	0.244	0.08840	0.091	2.308	0.354	0.000
2.77	0.246	0.08870	0.091	2.321	0.355	0.000
2.78	0.246	0.08900	0.091	2.321	0.356	0.000
2.79	0.246	0.08940	0.092	2.321	0.358	0.000
2.8	0.249	0.08970	0.092	2.350	0.359	0.000
2.81	0.249	0.09010	0.093	2.356	0.360	0.000
2.82	0.249	0.09040	0.093	2.356	0.362	0.000
2.83	0.251	0.09070	0.093	2.371	0.363	0.000
2.84	0.251	0.09110	0.093	2.371	0.364	0.000
2.85	0.252	0.09140	0.094	2.385	0.366	0.000
2.859	0.254	0.09170	0.094	2.399	0.367	0.000
2.869	0.255	0.09200	0.094	2.406	0.368	0.000
2.879	0.255	0.09240	0.095	2.413	0.370	0.000
2.889	0.256	0.09270	0.095	2.420	0.371	0.000
2.899	0.258	0.09300	0.095	2.434	0.372	0.000
2.909	0.258	0.09330	0.096	2.434	0.373	0.000
2.919	0.258	0.09370	0.096	2.440	0.375	0.000
2.929	0.260	0.09400	0.096	2.455	0.376	0.000
2.94	0.261	0.09440	0.097	2.461	0.378	0.000
2.95	0.262	0.09470	0.097	2.475	0.379	0.000
2.96	0.263	0.09500	0.097	2.483	0.380	0.000
2.97	0.264	0.09540	0.098	2.490	0.382	0.000
2.98	0.264	0.09570	0.098	2.496	0.383	0.000
2.99	0.265	0.09600	0.098	2.504	0.384	0.000
3	0.266	0.09640	0.099	2.518	0.386	0.000
3.01	0.267	0.09670	0.099	2.525	0.387	0.000
3.02	0.267	0.09700	0.099	2.525	0.388	0.000
3.03	0.269	0.09740	0.100	2.539	0.390	0.000
3.04	0.270	0.09770	0.100	2.553	0.391	0.000
3.05	0.272	0.09800	0.100	2.566	0.392	0.000
3.06	0.272	0.09840	0.101	2.574	0.394	0.000
3.07	0.273	0.09870	0.101	2.580	0.395	0.000
3.08	0.275	0.09900	0.101	2.594	0.396	0.000
3.09	0.274	0.09940	0.102	2.588	0.398	0.000
3.1	0.275	0.09970	0.102	2.594	0.399	0.000
3.109	0.277	0.10000	0.102	2.615	0.400	0.000
3.119	0.278	0.10030	0.103	2.629	0.401	0.000
3.129	0.278	0.10060	0.103	2.629	0.402	0.000
3.139	0.280	0.10100	0.103	2.644	0.404	0.000
3.149	0.281	0.10130	0.104	2.658	0.405	0.000
3.159	0.281	0.10160	0.104	2.658	0.406	0.000
3.169	0.282	0.10200	0.104	2.664	0.408	0.000
3.179	0.283	0.10230	0.105	2.679	0.409	0.000
3.19	0.285	0.10270	0.105	2.693	0.411	0.000
3.2	0.285	0.10300	0.105	2.693	0.412	0.000
3.21	0.286	0.10330	0.106	2.699	0.413	0.000
3.22	0.287	0.10370	0.106	2.714	0.415	0.000
3.23	0.288	0.10400	0.106	2.720	0.416	0.000
3.24	0.289	0.10430	0.107	2.728	0.417	0.000
3.25	0.291	0.10460	0.107	2.748	0.418	0.000
3.26	0.292	0.10500	0.107	2.755	0.420	0.000
3.27	0.292	0.10530	0.108	2.755	0.421	0.000
3.28	0.293	0.10560	0.108	2.769	0.422	0.000
3.29	0.293	0.10600	0.108	2.769	0.424	0.000
3.3	0.295	0.10630	0.109	2.783	0.425	0.000
3.31	0.296	0.10660	0.109	2.798	0.426	0.000
3.32	0.296	0.10700	0.109	2.798	0.428	0.000
3.33	0.298	0.10730	0.110	2.818	0.429	0.000
3.34	0.299	0.10760	0.110	2.825	0.430	0.000
3.35	0.298	0.10800	0.110	2.818	0.432	0.000
3.359	0.300	0.10830	0.111	2.833	0.433	0.000
3.369	0.302	0.10860	0.111	2.853	0.434	0.000
3.379	0.303	0.10890	0.111	2.868	0.436	0.000
3.389	0.303	0.10930	0.112	2.868	0.437	0.000
3.399	0.303	0.10960	0.112	2.860	0.438	0.000
3.409	0.305	0.10990	0.112	2.882	0.440	0.000
3.419	0.307	0.11030	0.113	2.902	0.441	0.000
3.429	0.306	0.11060	0.113	2.895	0.442	0.000
3.44	0.307	0.11100	0.113	2.902	0.444	0.000
3.45	0.309	0.11130	0.114	2.923	0.445	0.000
3.46	0.311	0.11160	0.114	2.937	0.446	0.000
3.47	0.311	0.11200	0.114	2.937	0.448	0.000
3.48	0.311	0.11230	0.115	2.937	0.449	0.000
3.49	0.312	0.11270	0.115	2.952	0.451	0.000
3.5	0.314	0.11300	0.115	2.965	0.452	0.000
3.51	0.315	0.11330	0.116	2.972	0.453	0.000
3.52	0.315	0.11370	0.116	2.979	0.455	0.000
3.53	0.317	0.11400	0.116	2.993	0.456	0.000
3.54	0.317	0.11430	0.117	2.993	0.457	0.000
3.55	0.317	0.11470	0.117	2.993	0.459	0.000
3.56	0.319	0.11500	0.117	3.014	0.460	0.000
3.57	0.320	0.11530	0.118	3.022	0.461	0.000
3.58	0.320	0.11570	0.118	3.022	0.463	0.000
3.59	0.322	0.11600	0.118	3.042	0.464	0.000
3.6	0.323	0.11640	0.119	3.049	0.466	0.000
3.609	0.324	0.11670	0.119	3.057	0.467	0.000
3.619	0.325	0.11700	0.119	3.070	0.468	0.000
3.629	0.325	0.11730	0.120	3.070	0.469	0.000
3.639	0.326	0.11770	0.120	3.077	0.471	0.000
3.649	0.327	0.11800	0.120	3.091	0.472	0.000
3.659	0.328	0.11830	0.121	3.098	0.473	0.000
3.669	0.329	0.11870	0.121	3.105	0.475	0.000
3.679	0.329	0.11900	0.121	3.112	0.476	0.000
3.69	0.330	0.11940	0.122	3.119	0.478	0.000
3.7	0.332	0.11970	0.122	3.133	0.479	0.000
3.71	0.333	0.12000	0.122	3.147	0.480	0.000
3.72	0.333	0.12040	0.123	3.147	0.482	0.000
3.73	0.335	0.12070	0.123	3.161	0.483	0.000
3.74	0.335	0.12110	0.123	3.168	0.484	0.000
3.75	0.335	0.12140	0.124	3.168	0.486	0.000
3.76	0.338	0.12170	0.124	3.196	0.487	0.000
3.77	0.338	0.12210	0.124	3.196	0.488	0.000
3.78	0.338	0.12240	0.125	3.196	0.490	0.000
3.79	0.340	0.12270	0.125	3.210	0.491	0.000
3.8	0.340	0.12310	0.125	3.217	0.492	0.000
3.81	0.342	0.12340	0.126	3.231	0.494	0.000
3.82	0.343	0.12370	0.126	3.238	0.495	0.000
3.83	0.343	0.12400	0.126	3.238	0.496	0.000
3.84	0.344	0.12440	0.127	3.252	0.498	0.000
3.85	0.346	0.12470	0.127	3.273	0.499	0.000
3.859	0.346	0.12500	0.127	3.273	0.500	0.000
3.869	0.346	0.12530	0.128	3.273	0.501	0.000
3.879	0.348	0.12570	0.128	3.287	0.503	0.000
3.889	0.349	0.12600	0.128	3.294	0.504	0.000
3.899	0.349	0.12630	0.129	3.301	0.505	0.000
3.909	0.350	0.12670	0.129	3.308	0.507	0.000
3.919	0.352	0.12700	0.129	3.322	0.508	0.000
3.929	0.353	0.12730	0.130	3.336	0.509	0.000
3.94	0.353	0.12770	0.130	3.336	0.511	0.000
3.95	0.354	0.12800	0.130	3.349	0.512	0.000
3.96	0.355	0.12830	0.131	3.357	0.513	0.000
3.97	0.356	0.12870	0.131	3.364	0.515	0.000
3.98	0.357	0.12900	0.131	3.378	0.516	0.000
3.99	0.357	0.12930	0.132	3.378	0.517	0.000
4	0.358	0.12960	0.132	3.384	0.518	0.000
4.01	0.359	0.13000	0.132	3.392	0.520	0.000
4.02	0.361	0.13030	0.133	3.406	0.521	0.000
4.03	0.362	0.13060	0.133	3.419	0.522	0.000
4.04	0.363	0.13100	0.133	3.427	0.524	0.000
4.05	0.364	0.13130	0.134	3.441	0.525	0.000
4.06	0.364	0.13160	0.134	3.441	0.526	0.000
4.07	0.364	0.13200	0.134	3.441	0.528	0.000
4.08	0.366	0.13230	0.135	3.462	0.529	0.000
4.09	0.367	0.13260	0.135	3.468	0.530	0.000
4.1	0.367	0.13300	0.135	3.468	0.532	0.000
4.109	0.369	0.13330	0.136	3.483	0.533	0.000
4.119	0.369	0.13360	0.136	3.490	0.534	0.000
4.129	0.370	0.13400	0.136	3.497	0.536	0.000
4.139	0.372	0.13430	0.137	3.511	0.537	0.000
4.149	0.372	0.13470	0.137	3.518	0.539	0.000
4.159	0.374	0.13500	0.137	3.532	0.540	0.000
4.169	0.375	0.13540	0.138	3.538	0.542	0.000
4.179	0.375	0.13580	0.138	3.538	0.543	0.000
4.19	0.376	0.13620	0.138	3.553	0.545	0.000
4.2	0.376	0.13610	0.139	3.553	0.544	0.000
4.21	0.377	0.13640	0.139	3.560	0.546	0.000
4.22	0.378	0.13670	0.139	3.573	0.547	0.000
4.23	0.379	0.13700	0.140	3.581	0.548	0.000
4.24	0.381	0.13740	0.140	3.602	0.550	0.000
4.25	0.382	0.13770	0.140	3.608	0.551	0.000
4.26	0.383	0.13800	0.141	3.616	0.552	0.000
4.27	0.383	0.13840	0.141	3.622	0.554	0.000
4.28	0.384	0.13870	0.141	3.630	0.555	0.000
4.29	0.386	0.13900	0.142	3.643	0.556	0.000
4.3	0.386	0.13940	0.142	3.643	0.558	0.000
4.31	0.386	0.13970	0.142	3.651	0.559	0.000
4.32	0.388	0.14000	0.143	3.665	0.560	0.000
4.33	0.388	0.14030	0.143	3.665	0.561	0.000
4.34	0.389	0.14070	0.143	3.678	0.563	0.000
4.35	0.391	0.14100	0.144	3.692	0.564	0.000
4.359	0.391	0.14130	0.144	3.692	0.565	0.000
4.369	0.392	0.14160	0.144	3.707	0.566	0.000
4.379	0.394	0.14200	0.145	3.721	0.568	0.000
4.389	0.394	0.14230	0.145	3.727	0.569	0.000
4.399	0.395	0.14260	0.145	3.735	0.570	0.000
4.409	0.396	0.14300	0.146	3.741	0.572	0.000
4.419	0.397	0.14330	0.146	3.748	0.573	0.000
4.429	0.398	0.14360	0.146	3.762	0.574	0.000
4.44	0.399	0.14400	0.147	3.770	0.576	0.000
4.45	0.399	0.14430	0.147	3.770	0.577	0.000
4.46	0.400	0.14470	0.147	3.783	0.579	0.000
4.47	0.401	0.14500	0.148	3.791	0.580	0.000
4.48	0.401	0.14530	0.148	3.791	0.581	0.000
4.49	0.403	0.14570	0.148	3.811	0.583	0.000
4.5	0.405	0.14600	0.149	3.826	0.584	0.000
4.51	0.405	0.14630	0.149	3.826	0.585	0.000
4.52	0.405	0.14670	0.149	3.826	0.587	0.000
4.53	0.406	0.14700	0.150	3.840	0.588	0.000
4.54	0.408	0.14730	0.150	3.853	0.589	0.000
4.55	0.409	0.14770	0.150	3.861	0.591	0.000
4.56	0.410	0.14800	0.151	3.875	0.592	0.000
4.57	0.410	0.14830	0.151	3.875	0.593	0.000
4.58	0.410	0.14870	0.151	3.875	0.595	0.000
4.59	0.412	0.14900	0.152	3.888	0.596	0.000
4.6	0.413	0.14930	0.152	3.902	0.597	0.000
4.609	0.414	0.14960	0.152	3.916	0.598	0.000
4.619	0.415	0.15000	0.153	3.923	0.600	0.000
4.629	0.416	0.15030	0.153	3.930	0.601	0.000
4.639	0.417	0.15060	0.153	3.937	0.602	0.000
4.649	0.418	0.15100	0.154	3.951	0.604	0.000
4.659	0.419	0.15130	0.154	3.958	0.605	0.000
4.669	0.419	0.15160	0.154	3.958	0.606	0.000
4.679	0.420	0.15200	0.155	3.972	0.608	0.000
4.69	0.421	0.15230	0.155	3.980	0.609	0.000
4.7	0.421	0.15270	0.155	3.980	0.611	0.000
4.71	0.422	0.15300	0.156	3.986	0.612	0.000
4.72	0.423	0.15330	0.156	4.000	0.613	0.000
4.73	0.425	0.15370	0.156	4.015	0.615	0.000
4.74	0.426	0.15400	0.157	4.021	0.616	0.000
4.75	0.426	0.15430	0.157	4.021	0.617	0.000
4.76	0.427	0.15470	0.157	4.035	0.619	0.000
4.77	0.429	0.15500	0.158	4.050	0.620	0.000
4.78	0.429	0.15530	0.158	4.056	0.621	0.000
4.79	0.430	0.15570	0.158	4.063	0.623	0.000
4.8	0.431	0.15600	0.159	4.070	0.624	0.000
4.81	0.432	0.15630	0.159	4.084	0.625	0.000
4.82	0.433	0.15670	0.159	4.091	0.627	0.000
4.83	0.433	0.15700	0.160	4.091	0.628	0.000
4.84	0.434	0.15730	0.160	4.098	0.629	0.000
4.85	0.435	0.15770	0.160	4.112	0.631	0.000
4.859	0.437	0.15800	0.161	4.126	0.632	0.000
4.869	0.437	0.15830	0.161	4.133	0.633	0.000
4.879	0.437	0.15860	0.161	4.133	0.634	0.000
4.889	0.439	0.15900	0.162	4.147	0.636	0.000
4.899	0.440	0.15930	0.162	4.161	0.637	0.000
4.909	0.440	0.15960	0.162	4.161	0.638	0.000
4.919	0.441	0.16000	0.163	4.169	0.640	0.000
4.929	0.443	0.16030	0.163	4.182	0.641	0.000
4.94	0.443	0.16070	0.163	4.189	0.643	0.000
4.95	0.444	0.16100	0.164	4.196	0.644	0.000
4.96	0.446	0.16130	0.164	4.210	0.645	0.000
4.97	0.446	0.16170	0.165	4.217	0.647	0.000
4.98	0.446	0.16200	0.165	4.217	0.648	0.000
4.99	0.448	0.16230	0.165	4.231	0.649	0.000
5	0.449	0.16270	0.165	4.245	0.651	0.000
5.01	0.449	0.16300	0.166	4.245	0.652	0.000
5.02	0.451	0.16330	0.166	4.259	0.653	0.000
5.03	0.451	0.16370	0.166	4.266	0.655	0.000
5.04	0.451	0.16400	0.167	4.266	0.656	0.000
5.05	0.453	0.16430	0.167	4.280	0.657	0.000
5.06	0.454	0.16470	0.167	4.294	0.659	0.000
5.07	0.455	0.16500	0.168	4.301	0.660	0.000
5.08	0.456	0.16530	0.168	4.308	0.661	0.000
5.09	0.457	0.16570	0.168	4.322	0.663	0.000
5.1	0.457	0.16600	0.169	4.322	0.664	0.000
5.109	0.458	0.16630	0.169	4.329	0.665	0.000
5.119	0.460	0.16660	0.169	4.350	0.666	0.000
5.129	0.461	0.16700	0.170	4.357	0.668	0.000
5.139	0.461	0.16730	0.170	4.357	0.669	0.000
5.149	0.462	0.16760	0.170	4.364	0.670	0.000
5.159	0.463	0.16800	0.171	4.378	0.672	0.000
5.169	0.464	0.16830	0.171	4.385	0.673	0.000
5.179	0.465	0.16860	0.171	4.392	0.674	0.000
5.19	0.466	0.16900	0.172	4.399	0.676	0.000
5.2	0.466	0.16930	0.172	4.406	0.677	0.000
5.21	0.468	0.16970	0.172	4.420	0.679	0.000
5.22	0.469	0.17000	0.173	4.434	0.680	0.000
5.23	0.470	0.17030	0.173	4.441	0.681	0.000
5.24	0.471	0.17070	0.173	4.448	0.683	0.000
5.25	0.471	0.17100	0.174	4.448	0.684	0.000
5.26	0.472	0.17130	0.174	4.461	0.685	0.000
5.27	0.474	0.17170	0.174	4.476	0.687	0.000
5.28	0.474	0.17200	0.175	4.476	0.688	0.000
5.29	0.475	0.17230	0.175	4.490	0.689	0.000
5.3	0.476	0.17270	0.175	4.496	0.691	0.000
5.31	0.475	0.17300	0.176	4.490	0.692	0.000
5.32	0.477	0.17330	0.176	4.511	0.693	0.000
5.33	0.480	0.17370	0.176	4.531	0.695	0.000
5.34	0.480	0.17400	0.177	4.531	0.696	0.000
5.35	0.480	0.17430	0.177	4.539	0.697	0.000
5.359	0.481	0.17460	0.177	4.546	0.698	0.000
5.369	0.483	0.17500	0.178	4.560	0.700	0.000
5.379	0.484	0.17530	0.178	4.574	0.701	0.000
5.389	0.484	0.17560	0.178	4.574	0.702	0.000
5.399	0.485	0.17600	0.179	4.580	0.704	0.000
5.409	0.486	0.17630	0.179	4.595	0.705	0.000
5.419	0.486	0.17660	0.179	4.595	0.706	0.000
5.429	0.488	0.17700	0.180	4.609	0.708	0.000
5.44	0.489	0.17730	0.180	4.623	0.709	0.000
5.45	0.491	0.17770	0.180	4.636	0.711	0.000
5.46	0.491	0.17800	0.181	4.644	0.712	0.000
5.47	0.490	0.17830	0.181	4.630	0.713	0.000
5.48	0.491	0.17870	0.181	4.644	0.715	0.000
5.49	0.494	0.17900	0.182	4.665	0.716	0.000
5.5	0.494	0.17930	0.182	4.671	0.717	0.000
5.51	0.494	0.17970	0.182	4.671	0.719	0.000
5.52	0.496	0.18000	0.183	4.685	0.720	0.000
5.53	0.497	0.18030	0.183	4.700	0.721	0.000
5.54	0.497	0.18070	0.183	4.693	0.723	0.000
5.55	0.498	0.18100	0.184	4.706	0.724	0.000
5.56	0.500	0.18130	0.184	4.720	0.725	0.000
5.57	0.500	0.18170	0.184	4.720	0.727	0.000
5.58	0.501	0.18200	0.185	4.735	0.728	0.000
5.59	0.503	0.18230	0.185	4.749	0.729	0.000
5.6	0.503	0.18270	0.185	4.749	0.731	0.000
5.609	0.503	0.18300	0.186	4.755	0.732	0.000
5.619	0.505	0.18330	0.186	4.769	0.733	0.000
5.629	0.506	0.18360	0.186	4.776	0.734	0.000
5.639	0.506	0.18400	0.187	4.784	0.736	0.000
5.649	0.508	0.18430	0.187	4.798	0.737	0.000
5.659	0.509	0.18460	0.187	4.811	0.738	0.000
5.669	0.509	0.18500	0.188	4.811	0.740	0.000
5.679	0.510	0.18530	0.188	4.819	0.741	0.000
5.69	0.512	0.18570	0.188	4.833	0.743	0.000
5.7	0.512	0.18600	0.189	4.833	0.744	0.000
5.71	0.513	0.18630	0.189	4.847	0.745	0.000
5.72	0.514	0.18670	0.189	4.854	0.747	0.000
5.73	0.514	0.18700	0.190	4.860	0.748	0.000
5.74	0.516	0.18730	0.190	4.874	0.749	0.000
5.75	0.516	0.18770	0.190	4.874	0.751	0.000
5.76	0.517	0.18800	0.191	4.889	0.752	0.000
5.77	0.520	0.18830	0.191	4.909	0.753	0.000
5.78	0.519	0.18870	0.191	4.903	0.755	0.000
5.79	0.520	0.18900	0.192	4.909	0.756	0.000
5.8	0.521	0.18930	0.192	4.923	0.757	0.000
5.81	0.522	0.18970	0.192	4.930	0.759	0.000
5.82	0.523	0.19000	0.193	4.944	0.760	0.000
5.83	0.524	0.19030	0.193	4.952	0.761	0.000
5.84	0.524	0.19070	0.193	4.952	0.763	0.000
5.85	0.525	0.19100	0.194	4.958	0.764	0.000
5.859	0.527	0.19130	0.194	4.979	0.765	0.000
5.869	0.527	0.19160	0.194	4.979	0.766	0.000
5.879	0.527	0.19200	0.195	4.979	0.768	0.000
5.889	0.529	0.19230	0.195	4.993	0.769	0.000
5.899	0.531	0.19260	0.195	5.014	0.770	0.000
5.909	0.531	0.19300	0.196	5.022	0.772	0.000
5.919	0.531	0.19330	0.196	5.014	0.773	0.000
5.929	0.532	0.19360	0.196	5.028	0.774	0.000
5.94	0.534	0.19400	0.197	5.043	0.776	0.000
5.95	0.534	0.19430	0.197	5.043	0.777	0.000
5.96	0.535	0.19470	0.197	5.057	0.779	0.000
5.97	0.536	0.19500	0.198	5.063	0.780	0.000
5.98	0.537	0.19530	0.198	5.077	0.781	0.000
5.99	0.539	0.19570	0.198	5.092	0.783	0.000
6	0.538	0.19600	0.199	5.084	0.784	0.000
6.01	0.540	0.19630	0.199	5.105	0.785	0.000
6.02	0.542	0.19670	0.199	5.119	0.787	0.000
6.03	0.541	0.19700	0.200	5.112	0.788	0.000
6.04	0.542	0.19730	0.200	5.119	0.789	0.000
6.05	0.543	0.19770	0.200	5.133	0.791	0.000
6.06	0.545	0.19800	0.201	5.147	0.792	0.000
6.07	0.545	0.19830	0.201	5.147	0.793	0.000
6.08	0.546	0.19870	0.201	5.162	0.795	0.000
6.09	0.548	0.19900	0.202	5.175	0.796	0.000
6.1	0.547	0.19930	0.202	5.168	0.797	0.000
6.109	0.548	0.19960	0.202	5.175	0.798	0.000
6.119	0.549	0.20000	0.203	5.189	0.800	0.000
6.129	0.551	0.20030	0.203	5.210	0.801	0.000
6.139	0.552	0.20060	0.203	5.217	0.802	0.000
6.149	0.551	0.20100	0.204	5.210	0.804	0.000
6.159	0.553	0.20130	0.204	5.224	0.805	0.000
6.169	0.554	0.20160	0.204	5.238	0.806	0.000
6.179	0.554	0.20200	0.205	5.238	0.808	0.000
6.19	0.555	0.20230	0.205	5.245	0.809	0.000
6.2	0.557	0.20270	0.205	5.259	0.811	0.000
6.21	0.557	0.20300	0.206	5.259	0.812	0.000
6.22	0.558	0.20330	0.206	5.273	0.813	0.000
6.23	0.560	0.20370	0.206	5.287	0.815	0.000
6.24	0.560	0.20400	0.207	5.287	0.816	0.000
6.25	0.560	0.20430	0.207	5.294	0.817	0.000
6.26	0.562	0.20470	0.207	5.308	0.819	0.000
6.27	0.563	0.20500	0.208	5.315	0.820	0.000
6.28	0.563	0.20530	0.208	5.315	0.821	0.000
6.29	0.564	0.20570	0.208	5.329	0.823	0.000
6.3	0.566	0.20600	0.209	5.343	0.824	0.000
6.31	0.566	0.20630	0.209	5.350	0.825	0.000
6.32	0.566	0.20670	0.209	5.350	0.827	0.000
6.33	0.568	0.20700	0.210	5.364	0.828	0.000
6.34	0.569	0.20730	0.210	5.378	0.829	0.000
6.35	0.569	0.20770	0.210	5.378	0.831	0.000
6.359	0.571	0.20800	0.211	5.392	0.832	0.000
6.369	0.571	0.20830	0.211	5.399	0.833	0.000
6.379	0.571	0.20860	0.211	5.399	0.834	0.000
6.389	0.573	0.20900	0.212	5.413	0.836	0.000
6.399	0.574	0.20930	0.212	5.420	0.837	0.000
6.409	0.574	0.20960	0.212	5.427	0.838	0.000
6.419	0.576	0.21000	0.213	5.441	0.840	0.000
6.429	0.577	0.21030	0.213	5.448	0.841	0.000
6.44	0.577	0.21070	0.213	5.454	0.843	0.000
6.45	0.578	0.21100	0.214	5.462	0.844	0.000
6.46	0.579	0.21130	0.214	5.469	0.845	0.000
6.47	0.580	0.21170	0.214	5.483	0.847	0.000
6.48	0.580	0.21200	0.215	5.483	0.848	0.000
6.49	0.581	0.21230	0.215	5.490	0.849	0.000
6.5	0.582	0.21270	0.215	5.504	0.851	0.000
6.51	0.582	0.21300	0.216	5.504	0.852	0.000
6.52	0.584	0.21330	0.216	5.518	0.853	0.000
6.53	0.586	0.21370	0.216	5.539	0.855	0.000
6.54	0.586	0.21400	0.217	5.539	0.856	0.000
6.55	0.586	0.21430	0.217	5.539	0.857	0.000
6.56	0.588	0.21470	0.217	5.553	0.859	0.000
6.57	0.589	0.21500	0.218	5.560	0.860	0.000
6.58	0.589	0.21530	0.218	5.567	0.861	0.000
6.59	0.591	0.21570	0.218	5.581	0.863	0.000
6.6	0.591	0.21600	0.219	5.588	0.864	0.000
6.609	0.592	0.21630	0.219	5.595	0.865	0.000
6.619	0.593	0.21660	0.219	5.602	0.866	0.000
6.629	0.594	0.21700	0.220	5.608	0.868	0.000
6.639	0.595	0.21730	0.220	5.623	0.869	0.000
6.649	0.596	0.21760	0.220	5.630	0.870	0.000
6.659	0.596	0.21800	0.221	5.630	0.872	0.000
6.669	0.597	0.21830	0.221	5.643	0.873	0.000
6.679	0.599	0.21860	0.221	5.658	0.874	0.000
6.69	0.599	0.21900	0.222	5.658	0.876	0.000
6.7	0.600	0.21930	0.222	5.665	0.877	0.000
6.71	0.600	0.21970	0.222	5.672	0.879	0.000
6.72	0.601	0.22000	0.223	5.678	0.880	0.000
6.73	0.603	0.22030	0.223	5.693	0.881	0.000
6.74	0.603	0.22070	0.223	5.700	0.883	0.000
6.75	0.604	0.22100	0.224	5.707	0.884	0.000
6.76	0.605	0.22130	0.224	5.721	0.885	0.000
6.77	0.605	0.22170	0.224	5.721	0.887	0.000
6.78	0.605	0.22200	0.225	5.721	0.888	0.000
6.79	0.608	0.22230	0.225	5.742	0.889	0.000
6.8	0.609	0.22270	0.225	5.756	0.891	0.000
6.81	0.609	0.22300	0.226	5.756	0.892	0.000
6.82	0.610	0.22330	0.226	5.762	0.893	0.000
6.83	0.611	0.22370	0.226	5.770	0.895	0.000
6.84	0.612	0.22400	0.227	5.783	0.896	0.000
6.85	0.614	0.22430	0.227	5.797	0.897	0.000
6.859	0.614	0.22460	0.227	5.797	0.898	0.000
6.869	0.614	0.22500	0.228	5.805	0.900	0.000
6.879	0.615	0.22530	0.228	5.812	0.901	0.000
6.889	0.617	0.22560	0.228	5.826	0.902	0.000
6.899	0.617	0.22600	0.229	5.832	0.904	0.000
6.909	0.618	0.22630	0.229	5.840	0.905	0.000
6.919	0.619	0.22660	0.229	5.853	0.906	0.000
6.929	0.619	0.22700	0.230	5.853	0.908	0.000
6.94	0.619	0.22730	0.230	5.853	0.909	0.000
6.95	0.620	0.22770	0.230	5.861	0.911	0.000
6.96	0.622	0.22800	0.231	5.875	0.912	0.000
6.97	0.624	0.22830	0.231	5.896	0.913	0.000
6.98	0.625	0.22870	0.231	5.902	0.915	0.000
6.99	0.626	0.22900	0.232	5.910	0.916	0.000
7	0.626	0.22930	0.232	5.916	0.917	0.000
7.01	0.626	0.22970	0.232	5.910	0.919	0.000
7.02	0.626	0.23000	0.233	5.916	0.920	0.000
7.03	0.628	0.23030	0.233	5.937	0.921	0.000
7.04	0.630	0.23070	0.233	5.951	0.923	0.000
7.05	0.630	0.23100	0.234	5.951	0.924	0.000
7.06	0.631	0.23130	0.234	5.958	0.925	0.000
7.07	0.631	0.23170	0.234	5.966	0.927	0.000
7.08	0.633	0.23200	0.235	5.980	0.928	0.000
7.09	0.634	0.23230	0.235	5.986	0.929	0.000
7.1	0.634	0.23270	0.235	5.986	0.931	0.000
7.109	0.635	0.23300	0.236	6.001	0.932	0.000
7.119	0.637	0.23330	0.236	6.015	0.933	0.000
7.129	0.637	0.23360	0.236	6.021	0.934	0.000
7.139	0.638	0.23400	0.237	6.028	0.936	0.000
7.149	0.639	0.23430	0.237	6.036	0.937	0.000
7.159	0.640	0.23460	0.237	6.050	0.938	0.000
7.169	0.641	0.23500	0.238	6.056	0.940	0.000
7.179	0.640	0.23530	0.238	6.050	0.941	0.000
7.19	0.642	0.23570	0.238	6.063	0.943	0.000
7.2	0.643	0.23600	0.239	6.077	0.944	0.000
7.21	0.644	0.23630	0.239	6.085	0.945	0.000
7.22	0.645	0.23670	0.239	6.091	0.947	0.000
7.23	0.645	0.23700	0.240	6.098	0.948	0.000
7.24	0.646	0.23730	0.240	6.105	0.949	0.000
7.25	0.648	0.23770	0.240	6.120	0.951	0.000
7.26	0.649	0.23800	0.241	6.133	0.952	0.000
7.27	0.649	0.23830	0.241	6.133	0.953	0.000
7.28	0.650	0.23870	0.241	6.140	0.955	0.000
7.29	0.651	0.23900	0.242	6.147	0.956	0.000
7.3	0.651	0.23930	0.242	6.155	0.957	0.000
7.31	0.653	0.23970	0.242	6.169	0.959	0.000
7.32	0.654	0.24000	0.243	6.175	0.960	0.000
7.33	0.654	0.24030	0.243	6.182	0.961	0.000
7.34	0.656	0.24070	0.243	6.196	0.963	0.000
7.35	0.657	0.24100	0.244	6.204	0.964	0.000
7.359	0.657	0.24130	0.244	6.204	0.965	0.000
7.369	0.658	0.24160	0.244	6.217	0.966	0.000
7.379	0.659	0.24200	0.245	6.224	0.968	0.000
7.389	0.660	0.24230	0.245	6.231	0.969	0.000
7.399	0.661	0.24260	0.245	6.245	0.970	0.000
7.409	0.662	0.24300	0.246	6.252	0.972	0.000
7.419	0.662	0.24330	0.246	6.252	0.973	0.000
7.429	0.663	0.24360	0.246	6.259	0.974	0.000
7.44	0.665	0.24400	0.247	6.280	0.976	0.000
7.45	0.665	0.24430	0.247	6.287	0.977	0.000
7.46	0.666	0.24470	0.247	6.294	0.979	0.000
7.47	0.666	0.24500	0.248	6.294	0.980	0.000
7.48	0.668	0.24530	0.248	6.309	0.981	0.000
7.49	0.669	0.24570	0.248	6.322	0.983	0.000
7.5	0.668	0.24600	0.249	6.315	0.984	0.000
7.51	0.669	0.24630	0.249	6.322	0.985	0.000
7.52	0.671	0.24670	0.249	6.344	0.987	0.000
7.53	0.672	0.24700	0.250	6.350	0.988	0.000
7.54	0.673	0.24730	0.250	6.357	0.989	0.000
7.55	0.674	0.24770	0.250	6.364	0.991	0.000
7.56	0.674	0.24800	0.251	6.364	0.992	0.000
7.57	0.676	0.24830	0.251	6.385	0.993	0.000
7.58	0.677	0.24870	0.251	6.392	0.995	0.000
7.59	0.677	0.24900	0.252	6.399	0.996	0.000
7.6	0.679	0.24930	0.252	6.413	0.997	0.000
7.609	0.679	0.24960	0.253	6.413	0.998	0.000
7.619	0.679	0.25000	0.253	6.420	1.000	0.000
7.629	0.681	0.25030	0.253	6.434	1.001	0.000
7.639	0.682	0.25060	0.254	6.441	1.002	0.000
7.649	0.682	0.25100	0.254	6.441	1.004	0.000
7.659	0.684	0.25130	0.254	6.462	1.005	0.000
7.669	0.685	0.25160	0.254	6.469	1.006	0.000
7.679	0.684	0.25200	0.255	6.462	1.008	0.000
7.69	0.685	0.25230	0.255	6.476	1.009	0.000
7.7	0.687	0.25270	0.255	6.490	1.011	0.000
7.71	0.688	0.25300	0.256	6.497	1.012	0.000
7.72	0.688	0.25330	0.256	6.504	1.013	0.000
7.73	0.689	0.25370	0.256	6.511	1.015	0.000
7.74	0.690	0.25400	0.257	6.518	1.016	0.000
7.75	0.691	0.25430	0.257	6.532	1.017	0.000
7.76	0.693	0.25470	0.257	6.546	1.019	0.000
7.77	0.694	0.25500	0.258	6.553	1.020	0.000
7.78	0.694	0.25530	0.258	6.553	1.021	0.000
7.79	0.694	0.25570	0.258	6.560	1.023	0.000
7.8	0.695	0.25600	0.259	6.567	1.024	0.000
7.81	0.697	0.25630	0.259	6.581	1.025	0.000
7.82	0.697	0.25670	0.259	6.588	1.027	0.000
7.83	0.699	0.25700	0.260	6.601	1.028	0.000
7.84	0.700	0.25730	0.260	6.609	1.029	0.000
7.85	0.699	0.25770	0.260	6.601	1.031	0.000
7.859	0.700	0.25800	0.261	6.616	1.032	0.000
7.869	0.702	0.25830	0.261	6.636	1.033	0.000
7.879	0.703	0.25860	0.261	6.644	1.034	0.000
7.889	0.703	0.25900	0.262	6.644	1.036	0.000
7.899	0.705	0.25930	0.262	6.658	1.037	0.000
7.909	0.705	0.25960	0.262	6.658	1.038	0.000
7.919	0.705	0.26000	0.263	6.665	1.040	0.000
7.929	0.708	0.26030	0.263	6.693	1.041	0.000
7.94	0.708	0.26070	0.263	6.686	1.043	0.000
7.95	0.707	0.26100	0.264	6.679	1.044	0.000
7.96	0.710	0.26130	0.264	6.706	1.045	0.000
7.97	0.711	0.26170	0.264	6.714	1.047	0.000
7.98	0.711	0.26200	0.265	6.714	1.048	0.000
7.99	0.712	0.26230	0.265	6.728	1.049	0.000
8	0.713	0.26270	0.265	6.735	1.051	0.000
8.01	0.714	0.26300	0.266	6.741	1.052	0.000
8.02	0.714	0.26330	0.266	6.749	1.053	0.000
8.03	0.715	0.26370	0.266	6.755	1.055	0.000
8.04	0.716	0.26400	0.267	6.770	1.056	0.000
8.05	0.718	0.26430	0.267	6.784	1.057	0.000
8.06	0.719	0.26470	0.267	6.790	1.059	0.000
8.07	0.719	0.26500	0.268	6.790	1.060	0.000
8.08	0.720	0.26530	0.268	6.798	1.061	0.000
8.09	0.720	0.26570	0.268	6.798	1.063	0.000
8.1	0.720	0.26600	0.269	6.805	1.064	0.000
8.109	0.723	0.26630	0.269	6.833	1.065	0.000
8.119	0.724	0.26670	0.269	6.840	1.067	0.000
8.129	0.724	0.26700	0.270	6.840	1.068	0.000
8.139	0.725	0.26730	0.270	6.854	1.069	0.000
8.149	0.726	0.26770	0.270	6.860	1.071	0.000
8.159	0.727	0.26800	0.271	6.868	1.072	0.000
8.169	0.728	0.26830	0.271	6.875	1.073	0.000
8.179	0.728	0.26870	0.271	6.875	1.075	0.000
8.19	0.729	0.26900	0.272	6.889	1.076	0.000
8.2	0.730	0.26940	0.272	6.895	1.078	0.000
8.21	0.731	0.26970	0.272	6.903	1.079	0.000
8.22	0.732	0.27000	0.273	6.917	1.080	0.000
8.23	0.733	0.27030	0.273	6.924	1.081	0.000
8.24	0.733	0.27070	0.273	6.924	1.083	0.000
8.25	0.734	0.27100	0.274	6.930	1.084	0.000
8.26	0.736	0.27130	0.274	6.952	1.085	0.000
8.27	0.736	0.27170	0.274	6.952	1.087	0.000
8.28	0.737	0.27200	0.275	6.965	1.088	0.000
8.29	0.739	0.27230	0.275	6.979	1.089	0.000
8.3	0.739	0.27270	0.275	6.979	1.091	0.000
8.31	0.739	0.27300	0.276	6.979	1.092	0.000
8.32	0.739	0.27330	0.276	6.987	1.093	0.000
8.33	0.742	0.27370	0.276	7.008	1.095	0.000
8.34	0.742	0.27400	0.277	7.014	1.096	0.000
8.35	0.742	0.27430	0.277	7.014	1.097	0.000
8.359	0.743	0.27460	0.277	7.022	1.098	0.000
8.369	0.745	0.27500	0.278	7.035	1.100	0.000
8.379	0.745	0.27530	0.278	7.043	1.101	0.000
8.389	0.746	0.27560	0.278	7.049	1.102	0.000
8.399	0.747	0.27590	0.279	7.057	1.104	0.000
8.409	0.748	0.27590	0.279	7.070	1.104	0.000
8.419	0.749	0.27630	0.279	7.078	1.105	0.000
8.429	0.750	0.27660	0.280	7.084	1.106	0.000
8.44	0.751	0.27700	0.280	7.092	1.108	0.000
8.45	0.751	0.27730	0.280	7.092	1.109	0.000
8.46	0.753	0.27770	0.281	7.113	1.111	0.000
8.47	0.753	0.27800	0.281	7.119	1.112	0.000
8.48	0.754	0.27830	0.281	7.127	1.113	0.000
8.49	0.755	0.27870	0.282	7.133	1.115	0.000
8.5	0.756	0.27900	0.282	7.140	1.116	0.000
8.51	0.757	0.27930	0.282	7.154	1.117	0.000
8.52	0.757	0.27970	0.283	7.154	1.119	0.000
8.53	0.759	0.28000	0.283	7.168	1.120	0.000
8.54	0.759	0.28030	0.283	7.175	1.121	0.000
8.55	0.760	0.28070	0.284	7.183	1.123	0.000
8.56	0.760	0.28100	0.284	7.183	1.124	0.000
8.57	0.761	0.28130	0.284	7.189	1.125	0.000
8.58	0.764	0.28170	0.285	7.217	1.127	0.000
8.59	0.764	0.28200	0.285	7.217	1.128	0.000
8.6	0.764	0.28230	0.285	7.217	1.129	0.000
8.609	0.765	0.28260	0.286	7.224	1.130	0.000
8.619	0.766	0.28300	0.286	7.238	1.132	0.000
8.629	0.768	0.28330	0.286	7.252	1.133	0.000
8.639	0.768	0.28360	0.287	7.252	1.134	0.000
8.649	0.768	0.28400	0.287	7.259	1.136	0.000
8.659	0.770	0.28430	0.287	7.273	1.137	0.000
8.669	0.770	0.28460	0.288	7.273	1.138	0.000
8.679	0.771	0.28500	0.288	7.280	1.140	0.000
8.69	0.773	0.28530	0.288	7.302	1.141	0.000
8.7	0.774	0.28570	0.289	7.308	1.143	0.000
8.71	0.773	0.28600	0.289	7.302	1.144	0.000
8.72	0.774	0.28630	0.289	7.315	1.145	0.000
8.73	0.776	0.28670	0.290	7.329	1.147	0.000
8.74	0.775	0.28700	0.290	7.322	1.148	0.000
8.75	0.777	0.28730	0.290	7.343	1.149	0.000
8.76	0.778	0.28770	0.291	7.350	1.151	0.000
8.77	0.778	0.28800	0.291	7.350	1.152	0.000
8.78	0.779	0.28830	0.291	7.364	1.153	0.000
8.79	0.780	0.28870	0.292	7.372	1.155	0.000
8.8	0.781	0.28900	0.292	7.378	1.156	0.000
8.81	0.782	0.28930	0.292	7.392	1.157	0.000
8.82	0.783	0.28970	0.293	7.399	1.159	0.000
8.83	0.784	0.29000	0.293	7.406	1.160	0.000
8.84	0.785	0.29030	0.293	7.413	1.161	0.000
8.85	0.785	0.29070	0.294	7.420	1.163	0.000
8.859	0.787	0.29100	0.294	7.434	1.164	0.000
8.869	0.787	0.29130	0.294	7.434	1.165	0.000
8.879	0.788	0.29160	0.295	7.441	1.166	0.000
8.889	0.789	0.29200	0.295	7.455	1.168	0.000
8.899	0.790	0.29230	0.295	7.469	1.169	0.000
8.909	0.790	0.29260	0.296	7.462	1.170	0.000
8.919	0.790	0.29300	0.296	7.469	1.172	0.000
8.929	0.793	0.29330	0.296	7.490	1.173	0.000
8.94	0.794	0.29370	0.297	7.497	1.175	0.000
8.95	0.794	0.29400	0.297	7.504	1.176	0.000
8.96	0.795	0.29430	0.297	7.511	1.177	0.000
8.97	0.795	0.29470	0.298	7.511	1.179	0.000
8.98	0.796	0.29500	0.298	7.518	1.180	0.000
8.99	0.797	0.29530	0.298	7.532	1.181	0.000
9	0.798	0.29570	0.299	7.539	1.183	0.000
9.01	0.799	0.29600	0.299	7.546	1.184	0.000
9.02	0.800	0.29630	0.299	7.560	1.185	0.000
9.03	0.801	0.29670	0.300	7.567	1.187	0.000
9.04	0.801	0.29700	0.300	7.567	1.188	0.000
9.05	0.802	0.29730	0.300	7.581	1.189	0.000
9.06	0.804	0.29770	0.301	7.595	1.191	0.000
9.07	0.805	0.29800	0.301	7.602	1.192	0.000
9.08	0.805	0.29830	0.301	7.602	1.193	0.000
9.09	0.805	0.29870	0.302	7.602	1.195	0.000
9.1	0.806	0.29900	0.302	7.616	1.196	0.000
9.109	0.808	0.29930	0.302	7.637	1.197	0.000
9.119	0.809	0.29960	0.303	7.644	1.198	0.000
9.129	0.810	0.30000	0.303	7.651	1.200	0.000
9.139	0.810	0.30030	0.303	7.651	1.201	0.000
9.149	0.810	0.30060	0.304	7.651	1.202	0.000
9.159	0.812	0.30100	0.304	7.672	1.204	0.000
9.169	0.813	0.30130	0.304	7.686	1.205	0.000
9.179	0.813	0.30160	0.305	7.679	1.206	0.000
9.19	0.813	0.30200	0.305	7.686	1.208	0.000
9.2	0.815	0.30230	0.305	7.700	1.209	0.000
9.21	0.816	0.30270	0.306	7.707	1.211	0.000
9.22	0.816	0.30300	0.306	7.714	1.212	0.000
9.23	0.817	0.30330	0.306	7.721	1.213	0.000
9.24	0.818	0.30370	0.307	7.728	1.215	0.000
9.25	0.819	0.30400	0.307	7.742	1.216	0.000
9.26	0.821	0.30430	0.307	7.756	1.217	0.000
9.27	0.821	0.30470	0.308	7.756	1.219	0.000
9.28	0.822	0.30500	0.308	7.763	1.220	0.000
9.29	0.822	0.30530	0.308	7.763	1.221	0.000
9.3	0.823	0.30570	0.309	7.777	1.223	0.000
9.31	0.825	0.30600	0.309	7.798	1.224	0.000
9.32	0.825	0.30630	0.309	7.798	1.225	0.000
9.33	0.826	0.30670	0.310	7.805	1.227	0.000
9.34	0.827	0.30700	0.310	7.812	1.228	0.000
9.35	0.827	0.30730	0.310	7.812	1.229	0.000
9.359	0.828	0.30760	0.311	7.826	1.230	0.000
9.369	0.829	0.30800	0.311	7.833	1.232	0.000
9.379	0.831	0.30830	0.311	7.847	1.233	0.000
9.389	0.831	0.30860	0.312	7.853	1.234	0.000
9.399	0.832	0.30900	0.312	7.861	1.236	0.000
9.409	0.834	0.30930	0.312	7.875	1.237	0.000
9.419	0.834	0.30960	0.313	7.875	1.238	0.000
9.429	0.835	0.31000	0.313	7.888	1.240	0.000
9.44	0.836	0.31030	0.313	7.896	1.241	0.000
9.45	0.836	0.31070	0.314	7.896	1.243	0.000
9.46	0.836	0.31100	0.314	7.902	1.244	0.000
9.47	0.838	0.31130	0.314	7.917	1.245	0.000
9.48	0.839	0.31170	0.315	7.923	1.247	0.000
9.49	0.839	0.31200	0.315	7.923	1.248	0.000
9.5	0.840	0.31230	0.315	7.937	1.249	0.000
9.51	0.842	0.31270	0.316	7.952	1.251	0.000
9.52	0.842	0.31300	0.316	7.952	1.252	0.000
9.53	0.842	0.31330	0.316	7.952	1.253	0.000
9.54	0.844	0.31370	0.317	7.972	1.255	0.000
9.55	0.845	0.31400	0.317	7.987	1.256	0.000
9.56	0.845	0.31430	0.317	7.987	1.257	0.000
9.57	0.845	0.31470	0.318	7.987	1.259	0.000
9.58	0.846	0.31500	0.318	7.993	1.260	0.000
9.59	0.848	0.31530	0.318	8.007	1.261	0.000
9.6	0.848	0.31570	0.319	8.007	1.263	0.000
9.609	0.849	0.31600	0.319	8.022	1.264	0.000
9.619	0.850	0.31630	0.319	8.036	1.265	0.000
9.629	0.851	0.31660	0.320	8.042	1.266	0.000
9.639	0.852	0.31700	0.320	8.050	1.268	0.000
9.649	0.853	0.31730	0.320	8.057	1.269	0.000
9.659	0.853	0.31760	0.321	8.057	1.270	0.000
9.669	0.853	0.31800	0.321	8.063	1.272	0.000
9.679	0.856	0.31830	0.321	8.085	1.273	0.000
9.69	0.856	0.31870	0.322	8.091	1.275	0.000
9.7	0.856	0.31900	0.322	8.085	1.276	0.000
9.71	0.857	0.31930	0.322	8.098	1.277	0.000
9.72	0.859	0.31970	0.323	8.112	1.279	0.000
9.73	0.859	0.32000	0.323	8.112	1.280	0.000
9.74	0.861	0.32030	0.323	8.133	1.281	0.000
9.75	0.862	0.32070	0.324	8.141	1.283	0.000
9.76	0.862	0.32100	0.324	8.141	1.284	0.000
9.77	0.862	0.32130	0.324	8.147	1.285	0.000
9.78	0.863	0.32170	0.325	8.155	1.287	0.000
9.79	0.863	0.32200	0.325	8.155	1.288	0.000
9.8	0.865	0.32230	0.325	8.169	1.289	0.000
9.81	0.866	0.32270	0.326	8.182	1.291	0.000
9.82	0.867	0.32300	0.326	8.190	1.292	0.000
9.83	0.868	0.32330	0.326	8.196	1.293	0.000
9.84	0.868	0.32370	0.327	8.196	1.295	0.000
9.85	0.869	0.32400	0.327	8.211	1.296	0.000
9.859	0.870	0.32430	0.327	8.217	1.297	0.000
9.869	0.871	0.32460	0.328	8.225	1.298	0.000
9.879	0.872	0.32500	0.328	8.239	1.300	0.000
9.889	0.873	0.32530	0.328	8.245	1.301	0.000
9.899	0.873	0.32560	0.329	8.252	1.302	0.000
9.909	0.874	0.32600	0.329	8.260	1.304	0.000
9.919	0.874	0.32630	0.329	8.260	1.305	0.000
9.929	0.875	0.32660	0.330	8.266	1.306	0.000
9.94	0.876	0.32700	0.330	8.280	1.308	0.000
9.95	0.878	0.32730	0.330	8.295	1.309	0.000
9.96	0.878	0.32770	0.331	8.295	1.311	0.000
9.97	0.878	0.32800	0.331	8.295	1.312	0.000
9.98	0.880	0.32830	0.331	8.315	1.313	0.000
9.99	0.881	0.32870	0.332	8.322	1.315	0.000
10	0.881	0.32900	0.332	8.322	1.316	0.000
10.01	0.882	0.32930	0.332	8.336	1.317	0.000
10.02	0.883	0.32970	0.333	8.344	1.319	0.000
10.03	0.884	0.33000	0.333	8.350	1.320	0.000
10.04	0.885	0.33030	0.333	8.357	1.321	0.000
10.05	0.885	0.33070	0.334	8.365	1.323	0.000
10.06	0.887	0.33100	0.334	8.379	1.324	0.000
10.07	0.887	0.33130	0.335	8.385	1.325	0.000
10.08	0.888	0.33170	0.335	8.392	1.327	0.000
10.09	0.889	0.33200	0.335	8.399	1.328	0.000
10.1	0.889	0.33230	0.335	8.399	1.329	0.000
10.109	0.891	0.33260	0.336	8.414	1.330	0.000
10.119	0.892	0.33300	0.336	8.427	1.332	0.000
10.129	0.892	0.33330	0.336	8.427	1.333	0.000
10.139	0.893	0.33360	0.337	8.434	1.334	0.000
10.149	0.894	0.33400	0.337	8.449	1.336	0.000
10.159	0.894	0.33430	0.337	8.449	1.337	0.000
10.169	0.895	0.33460	0.338	8.455	1.338	0.000
10.179	0.896	0.33500	0.338	8.462	1.340	0.000
10.19	0.897	0.33530	0.338	8.476	1.341	0.000
10.2	0.898	0.33570	0.339	8.484	1.343	0.000
10.21	0.898	0.33600	0.339	8.484	1.344	0.000
10.22	0.899	0.33630	0.339	8.497	1.345	0.000
10.23	0.900	0.33670	0.340	8.504	1.347	0.000
10.24	0.901	0.33700	0.340	8.511	1.348	0.000
10.25	0.902	0.33730	0.340	8.519	1.349	0.000
10.26	0.902	0.33770	0.341	8.525	1.351	0.000
10.27	0.903	0.33800	0.341	8.532	1.352	0.000
10.28	0.904	0.33830	0.341	8.539	1.353	0.000
10.29	0.905	0.33870	0.342	8.546	1.355	0.000
10.3	0.905	0.33900	0.342	8.553	1.356	0.000
10.31	0.906	0.33930	0.342	8.560	1.357	0.000
10.32	0.907	0.33970	0.343	8.567	1.359	0.000
10.33	0.908	0.34000	0.343	8.574	1.360	0.000
10.34	0.909	0.34030	0.343	8.588	1.361	0.000
10.35	0.910	0.34070	0.344	8.595	1.363	0.000
10.359	0.910	0.34100	0.344	8.602	1.364	0.000
10.369	0.911	0.34130	0.344	8.609	1.365	0.000
10.379	0.911	0.34160	0.345	8.609	1.366	0.000
10.389	0.912	0.34200	0.345	8.616	1.368	0.000
10.399	0.913	0.34230	0.345	8.630	1.369	0.000
10.409	0.915	0.34260	0.346	8.644	1.370	0.000
10.419	0.916	0.34300	0.346	8.651	1.372	0.000
10.429	0.916	0.34330	0.346	8.651	1.373	0.000
10.44	0.916	0.34370	0.347	8.651	1.375	0.000
10.45	0.917	0.34400	0.347	8.665	1.376	0.000
10.46	0.919	0.34430	0.347	8.679	1.377	0.000
10.47	0.919	0.34470	0.348	8.679	1.379	0.000
10.48	0.919	0.34500	0.348	8.686	1.380	0.000
10.49	0.920	0.34530	0.348	8.693	1.381	0.000
10.5	0.922	0.34570	0.349	8.707	1.383	0.000
10.51	0.923	0.34600	0.349	8.721	1.384	0.000
10.52	0.923	0.34630	0.349	8.721	1.385	0.000
10.53	0.924	0.34670	0.350	8.728	1.387	0.000
10.54	0.924	0.34700	0.350	8.735	1.388	0.000
10.55	0.926	0.34730	0.350	8.749	1.389	0.000
10.56	0.927	0.34770	0.351	8.756	1.391	0.000
10.57	0.927	0.34800	0.351	8.756	1.392	0.000
10.58	0.928	0.34830	0.351	8.770	1.393	0.000
10.59	0.929	0.34870	0.352	8.776	1.395	0.000
10.6	0.930	0.34900	0.352	8.784	1.396	0.000
10.609	0.930	0.34930	0.352	8.791	1.397	0.000
10.619	0.932	0.34960	0.353	8.805	1.398	0.000
10.629	0.932	0.35000	0.353	8.805	1.400	0.000
10.639	0.933	0.35030	0.353	8.811	1.401	0.000
10.649	0.934	0.35060	0.354	8.826	1.402	0.000
10.659	0.934	0.35100	0.354	8.826	1.404	0.000
10.669	0.936	0.35130	0.354	8.840	1.405	0.000
10.679	0.936	0.35160	0.355	8.847	1.406	0.000
10.69	0.937	0.35200	0.355	8.854	1.408	0.000
10.7	0.938	0.35230	0.355	8.861	1.409	0.000
10.71	0.939	0.35270	0.356	8.868	1.411	0.000
10.72	0.940	0.35300	0.356	8.882	1.412	0.000
10.73	0.940	0.35330	0.356	8.882	1.413	0.000
10.74	0.941	0.35370	0.357	8.889	1.415	0.000
10.75	0.942	0.35400	0.357	8.903	1.416	0.000
10.76	0.942	0.35430	0.357	8.903	1.417	0.000
10.77	0.943	0.35470	0.358	8.910	1.419	0.000
10.78	0.945	0.35500	0.358	8.924	1.420	0.000
10.79	0.945	0.35530	0.358	8.930	1.421	0.000
10.8	0.946	0.35570	0.359	8.938	1.423	0.000
10.81	0.947	0.35600	0.359	8.945	1.424	0.000
10.82	0.947	0.35630	0.359	8.952	1.425	0.000
10.83	0.949	0.35670	0.360	8.965	1.427	0.000
10.84	0.949	0.35700	0.360	8.965	1.428	0.000
10.85	0.950	0.35730	0.360	8.973	1.429	0.000
10.859	0.951	0.35760	0.361	8.987	1.430	0.000
10.869	0.952	0.35800	0.361	8.994	1.432	0.000
10.879	0.952	0.35830	0.361	8.994	1.433	0.000
10.889	0.953	0.35860	0.362	9.008	1.434	0.000
10.899	0.955	0.35900	0.362	9.022	1.436	0.000
10.909	0.954	0.35930	0.362	9.015	1.437	0.000
10.919	0.955	0.35960	0.363	9.022	1.438	0.000
10.929	0.956	0.36000	0.363	9.035	1.440	0.000
10.94	0.957	0.36030	0.363	9.043	1.441	0.000
10.95	0.958	0.36070	0.364	9.050	1.443	0.000
10.96	0.959	0.36100	0.364	9.057	1.444	0.000
10.97	0.960	0.36130	0.364	9.070	1.445	0.000
10.98	0.961	0.36170	0.365	9.084	1.447	0.000
10.99	0.961	0.36200	0.365	9.078	1.448	0.000
11	0.961	0.36230	0.365	9.084	1.449	0.000
11.01	0.963	0.36270	0.366	9.099	1.451	0.000
11.02	0.963	0.36300	0.366	9.099	1.452	0.000
11.03	0.965	0.36330	0.366	9.113	1.453	0.000
11.04	0.966	0.36370	0.367	9.127	1.455	0.000
11.05	0.966	0.36400	0.367	9.127	1.456	0.000
11.06	0.967	0.36430	0.367	9.140	1.457	0.000
11.07	0.969	0.36470	0.368	9.154	1.459	0.000
11.08	0.968	0.36500	0.368	9.148	1.460	0.000
11.09	0.969	0.36530	0.368	9.154	1.461	0.000
11.1	0.970	0.36570	0.369	9.169	1.463	0.000
11.109	0.971	0.36600	0.369	9.175	1.464	0.000
11.119	0.971	0.36630	0.369	9.175	1.465	0.000
11.129	0.973	0.36660	0.370	9.189	1.466	0.000
11.139	0.973	0.36700	0.370	9.197	1.468	0.000
11.149	0.973	0.36730	0.370	9.197	1.469	0.000
11.159	0.976	0.36760	0.371	9.218	1.470	0.000
11.169	0.976	0.36800	0.371	9.218	1.472	0.000
11.179	0.976	0.36830	0.371	9.224	1.473	0.000
11.19	0.978	0.36870	0.372	9.238	1.475	0.000
11.2	0.978	0.36900	0.372	9.238	1.476	0.000
11.21	0.979	0.36930	0.372	9.253	1.477	0.000
11.22	0.980	0.36970	0.373	9.259	1.479	0.000
11.23	0.980	0.37000	0.373	9.259	1.480	0.000
11.24	0.982	0.37030	0.373	9.273	1.481	0.000
11.25	0.982	0.37070	0.374	9.280	1.483	0.000
11.26	0.983	0.37100	0.374	9.288	1.484	0.000
11.27	0.984	0.37130	0.374	9.294	1.485	0.000
11.28	0.984	0.37170	0.375	9.302	1.487	0.000
11.29	0.986	0.37200	0.375	9.315	1.488	0.000
11.3	0.987	0.37230	0.375	9.323	1.489	0.000
11.31	0.987	0.37270	0.376	9.323	1.491	0.000
11.32	0.987	0.37300	0.376	9.329	1.492	0.000
11.33	0.989	0.37330	0.377	9.343	1.493	0.000
11.34	0.990	0.37370	0.377	9.358	1.495	0.000
11.35	0.990	0.37400	0.377	9.350	1.496	0.000
11.359	0.990	0.37430	0.377	9.350	1.497	0.000
11.369	0.992	0.37460	0.378	9.372	1.498	0.000
11.379	0.993	0.37500	0.378	9.378	1.500	0.000
11.389	0.994	0.37530	0.378	9.392	1.501	0.000
11.399	0.995	0.37560	0.379	9.399	1.502	0.000
11.409	0.995	0.37600	0.379	9.399	1.504	0.000
11.419	0.996	0.37630	0.379	9.413	1.505	0.000
11.429	0.997	0.37660	0.380	9.420	1.506	0.000
11.44	0.998	0.37700	0.380	9.427	1.508	0.000
11.45	0.998	0.37730	0.380	9.434	1.509	0.000
11.46	0.998	0.37770	0.381	9.434	1.511	0.000
11.47	1.000	0.37800	0.381	9.448	1.512	0.000
11.48	1.002	0.37830	0.381	9.462	1.513	0.000
11.49	1.002	0.37870	0.382	9.462	1.515	0.000
11.5	1.002	0.37900	0.382	9.469	1.516	0.000
11.51	1.003	0.37930	0.382	9.477	1.517	0.000
11.52	1.004	0.37970	0.383	9.483	1.519	0.000
11.53	1.005	0.38000	0.383	9.497	1.520	0.000
11.54	1.006	0.38030	0.383	9.504	1.521	0.000
11.55	1.007	0.38070	0.384	9.512	1.523	0.000
11.56	1.007	0.38100	0.384	9.512	1.524	0.000
11.57	1.007	0.38130	0.384	9.518	1.525	0.000
11.58	1.009	0.38170	0.385	9.532	1.527	0.000
11.59	1.010	0.38200	0.385	9.539	1.528	0.000
11.6	1.010	0.38230	0.385	9.546	1.529	0.000
11.609	1.011	0.38260	0.386	9.553	1.530	0.000
11.619	1.012	0.38300	0.386	9.561	1.532	0.000
11.629	1.012	0.38330	0.386	9.561	1.533	0.000
11.639	1.014	0.38360	0.387	9.581	1.534	0.000
11.649	1.015	0.38400	0.387	9.588	1.536	0.000
11.659	1.015	0.38430	0.387	9.588	1.537	0.000
11.669	1.016	0.38460	0.388	9.602	1.538	0.000
11.679	1.017	0.38500	0.388	9.609	1.540	0.000
11.69	1.017	0.38530	0.388	9.609	1.541	0.000
11.7	1.018	0.38570	0.389	9.623	1.543	0.000
11.71	1.020	0.38600	0.389	9.637	1.544	0.000
11.72	1.020	0.38630	0.389	9.637	1.545	0.000
11.73	1.021	0.38670	0.390	9.644	1.547	0.000
11.74	1.021	0.38700	0.390	9.651	1.548	0.000
11.75	1.021	0.38730	0.390	9.651	1.549	0.000
11.76	1.022	0.38770	0.391	9.658	1.551	0.000
11.77	1.024	0.38800	0.391	9.679	1.552	0.000
11.78	1.026	0.38830	0.391	9.693	1.553	0.000
11.79	1.025	0.38870	0.392	9.686	1.555	0.000
11.8	1.025	0.38900	0.392	9.686	1.556	0.000
11.81	1.027	0.38930	0.392	9.700	1.557	0.000
11.82	1.027	0.38970	0.393	9.707	1.559	0.000
11.83	1.029	0.39000	0.393	9.721	1.560	0.000
11.84	1.029	0.39030	0.393	9.721	1.561	0.000
11.85	1.029	0.39070	0.394	9.721	1.563	0.000
11.859	1.032	0.39100	0.394	9.749	1.564	0.000
11.869	1.032	0.39130	0.394	9.749	1.565	0.000
11.879	1.032	0.39160	0.395	9.749	1.566	0.000
11.889	1.034	0.39200	0.395	9.770	1.568	0.000
11.899	1.034	0.39230	0.396	9.770	1.569	0.000
11.909	1.034	0.39260	0.396	9.770	1.570	0.000
11.919	1.036	0.39300	0.396	9.784	1.572	0.000
11.929	1.036	0.39330	0.396	9.791	1.573	0.000
11.94	1.036	0.39370	0.397	9.791	1.575	0.000
11.95	1.038	0.39400	0.397	9.805	1.576	0.000
11.96	1.038	0.39430	0.397	9.805	1.577	0.000
11.97	1.039	0.39470	0.398	9.819	1.579	0.000
11.98	1.041	0.39500	0.398	9.840	1.580	0.000
11.99	1.040	0.39530	0.398	9.826	1.581	0.000
12	1.041	0.39570	0.399	9.840	1.583	0.000
12.01	1.042	0.39600	0.399	9.847	1.584	0.000
12.02	1.042	0.39630	0.399	9.847	1.585	0.000
12.03	1.044	0.39670	0.400	9.868	1.587	0.000
12.04	1.045	0.39700	0.400	9.875	1.588	0.000
12.05	1.045	0.39730	0.400	9.875	1.589	0.000
12.06	1.046	0.39770	0.401	9.882	1.591	0.000
12.07	1.047	0.39800	0.401	9.896	1.592	0.000
12.08	1.048	0.39830	0.401	9.903	1.593	0.000
12.09	1.048	0.39870	0.402	9.903	1.595	0.000
12.1	1.049	0.39900	0.402	9.910	1.596	0.000
12.109	1.050	0.39930	0.402	9.923	1.597	0.000
12.119	1.051	0.39960	0.403	9.931	1.598	0.000
12.129	1.051	0.40000	0.403	9.931	1.600	0.000
12.139	1.052	0.40030	0.403	9.938	1.601	0.000
12.149	1.053	0.40060	0.404	9.952	1.602	0.000
12.159	1.054	0.40100	0.404	9.958	1.604	0.000
12.169	1.056	0.40130	0.404	9.973	1.605	0.000
12.179	1.056	0.40160	0.405	9.980	1.606	0.000
12.19	1.057	0.40200	0.405	9.987	1.608	0.000
12.2	1.058	0.40230	0.405	9.993	1.609	0.000
12.21	1.058	0.40270	0.406	9.993	1.611	0.000
12.22	1.059	0.40300	0.406	10.001	1.612	0.000
12.23	1.060	0.40330	0.406	10.015	1.613	0.000
12.24	1.060	0.40370	0.407	10.015	1.615	0.000
12.25	1.061	0.40400	0.407	10.022	1.616	0.000
12.26	1.061	0.40430	0.407	10.028	1.617	0.000
12.27	1.062	0.40470	0.408	10.036	1.619	0.000
12.28	1.064	0.40500	0.408	10.050	1.620	0.000
12.29	1.064	0.40530	0.408	10.057	1.621	0.000
12.3	1.066	0.40570	0.409	10.071	1.623	0.000
12.31	1.067	0.40600	0.409	10.077	1.624	0.000
12.32	1.066	0.40630	0.409	10.071	1.625	0.000
12.33	1.067	0.40670	0.410	10.077	1.627	0.000
12.34	1.069	0.40700	0.410	10.098	1.628	0.000
12.35	1.070	0.40730	0.410	10.106	1.629	0.000
12.359	1.069	0.40760	0.411	10.098	1.630	0.000
12.369	1.070	0.40800	0.411	10.106	1.632	0.000
12.379	1.071	0.40830	0.411	10.120	1.633	0.000
12.389	1.072	0.40860	0.412	10.127	1.634	0.000
12.399	1.072	0.40900	0.412	10.133	1.636	0.000
12.409	1.072	0.40930	0.413	10.133	1.637	0.000
12.419	1.074	0.40960	0.413	10.147	1.638	0.000
12.429	1.076	0.41000	0.413	10.162	1.640	0.000
12.44	1.076	0.41030	0.414	10.162	1.641	0.000
12.45	1.076	0.41070	0.414	10.162	1.643	0.000
12.46	1.076	0.41100	0.414	10.168	1.644	0.000
12.47	1.079	0.41130	0.414	10.190	1.645	0.000
12.48	1.079	0.41170	0.415	10.197	1.647	0.000
12.49	1.079	0.41200	0.415	10.197	1.648	0.000
12.5	1.081	0.41230	0.415	10.211	1.649	0.000
12.51	1.081	0.41270	0.416	10.217	1.651	0.000
12.52	1.081	0.41300	0.416	10.217	1.652	0.000
12.53	1.083	0.41330	0.416	10.231	1.653	0.000
12.54	1.084	0.41370	0.417	10.239	1.655	0.000
12.55	1.084	0.41400	0.417	10.239	1.656	0.000
12.56	1.085	0.41430	0.417	10.252	1.657	0.000
12.57	1.085	0.41470	0.418	10.252	1.659	0.000
12.58	1.087	0.41500	0.418	10.266	1.660	0.000
12.59	1.087	0.41540	0.418	10.274	1.662	0.000
12.6	1.088	0.41570	0.419	10.281	1.663	0.000
12.609	1.090	0.41600	0.419	10.295	1.664	0.000
12.619	1.090	0.41600	0.419	10.295	1.664	0.000
12.629	1.090	0.41630	0.420	10.301	1.665	0.000
12.639	1.091	0.41660	0.420	10.309	1.666	0.000
12.649	1.092	0.41700	0.420	10.316	1.668	0.000
12.659	1.092	0.41730	0.421	10.322	1.669	0.000
12.669	1.093	0.41760	0.421	10.330	1.670	0.000
12.679	1.094	0.41800	0.421	10.336	1.672	0.000
12.69	1.096	0.41830	0.422	10.357	1.673	0.000
12.7	1.097	0.41870	0.422	10.365	1.675	0.000
12.71	1.097	0.41900	0.422	10.365	1.676	0.000
12.72	1.097	0.41930	0.423	10.365	1.677	0.000
12.73	1.098	0.41970	0.423	10.371	1.679	0.000
12.74	1.099	0.42000	0.423	10.385	1.680	0.000
12.75	1.099	0.42030	0.424	10.385	1.681	0.000
12.76	1.100	0.42070	0.424	10.392	1.683	0.000
12.77	1.101	0.42100	0.424	10.406	1.684	0.000
12.78	1.102	0.42130	0.425	10.414	1.685	0.000
12.79	1.103	0.42170	0.425	10.420	1.687	0.000
12.8	1.104	0.42200	0.425	10.427	1.688	0.000
12.81	1.104	0.42230	0.426	10.435	1.689	0.000
12.82	1.105	0.42270	0.426	10.441	1.691	0.000
12.83	1.106	0.42300	0.426	10.449	1.692	0.000
12.84	1.107	0.42330	0.427	10.455	1.693	0.000
12.85	1.107	0.42370	0.427	10.455	1.695	0.000
12.859	1.108	0.42400	0.427	10.470	1.696	0.000
12.869	1.110	0.42430	0.428	10.484	1.697	0.000
12.879	1.110	0.42460	0.428	10.484	1.698	0.000
12.889	1.110	0.42500	0.428	10.490	1.700	0.000
12.899	1.112	0.42530	0.429	10.505	1.701	0.000
12.909	1.112	0.42560	0.429	10.505	1.702	0.000
12.919	1.112	0.42600	0.429	10.511	1.704	0.000
12.929	1.114	0.42630	0.430	10.525	1.705	0.000
12.94	1.115	0.42670	0.430	10.532	1.707	0.000
12.95	1.115	0.42700	0.430	10.532	1.708	0.000
12.96	1.115	0.42730	0.431	10.532	1.709	0.000
12.97	1.118	0.42770	0.431	10.560	1.711	0.000
12.98	1.118	0.42800	0.431	10.567	1.712	0.000
12.99	1.118	0.42830	0.432	10.560	1.713	0.000
13	1.120	0.42870	0.432	10.581	1.715	0.000
13.01	1.120	0.42900	0.432	10.581	1.716	0.000
13.02	1.120	0.42930	0.433	10.581	1.717	0.000
13.03	1.122	0.42970	0.433	10.602	1.719	0.000
13.04	1.123	0.43000	0.433	10.609	1.720	0.000
13.05	1.124	0.43030	0.434	10.616	1.721	0.000
13.06	1.124	0.43070	0.434	10.616	1.723	0.000
13.07	1.124	0.43100	0.434	10.624	1.724	0.000
13.08	1.126	0.43130	0.435	10.637	1.725	0.000
13.09	1.126	0.43170	0.435	10.637	1.727	0.000
13.1	1.127	0.43200	0.435	10.644	1.728	0.000
13.109	1.127	0.43230	0.436	10.651	1.729	0.000
13.119	1.129	0.43260	0.436	10.665	1.730	0.000
13.129	1.130	0.43300	0.436	10.672	1.732	0.000
13.139	1.130	0.43330	0.437	10.672	1.733	0.000
13.149	1.132	0.43360	0.437	10.694	1.734	0.000
13.159	1.133	0.43400	0.437	10.700	1.736	0.000
13.169	1.133	0.43430	0.438	10.700	1.737	0.000
13.179	1.133	0.43460	0.438	10.707	1.738	0.000
13.19	1.134	0.43500	0.438	10.714	1.740	0.000
13.2	1.134	0.43530	0.439	10.714	1.741	0.000
13.21	1.135	0.43570	0.439	10.721	1.743	0.000
13.22	1.136	0.43600	0.439	10.735	1.744	0.000
13.23	1.136	0.43630	0.440	10.735	1.745	0.000
13.24	1.138	0.43670	0.440	10.749	1.747	0.000
13.25	1.139	0.43700	0.440	10.763	1.748	0.000
13.26	1.139	0.43730	0.441	10.763	1.749	0.000
13.27	1.140	0.43770	0.441	10.770	1.751	0.000
13.28	1.141	0.43800	0.441	10.777	1.752	0.000
13.29	1.141	0.43830	0.442	10.784	1.753	0.000
13.3	1.142	0.43870	0.442	10.791	1.755	0.000
13.31	1.143	0.43900	0.442	10.798	1.756	0.000
13.32	1.144	0.43930	0.443	10.805	1.757	0.000
13.33	1.144	0.43970	0.443	10.812	1.759	0.000
13.34	1.146	0.44000	0.443	10.826	1.760	0.000
13.35	1.146	0.44030	0.444	10.826	1.761	0.000
13.359	1.147	0.44060	0.444	10.833	1.762	0.000
13.369	1.147	0.44100	0.444	10.840	1.764	0.000
13.379	1.147	0.44130	0.445	10.840	1.765	0.000
13.389	1.149	0.44160	0.445	10.854	1.766	0.000
13.399	1.150	0.44200	0.445	10.861	1.768	0.000
13.409	1.151	0.44230	0.446	10.875	1.769	0.000
13.419	1.153	0.44260	0.446	10.889	1.770	0.000
13.429	1.152	0.44300	0.446	10.882	1.772	0.000
13.44	1.152	0.44330	0.447	10.882	1.773	0.000
13.45	1.153	0.44370	0.447	10.896	1.775	0.000
13.46	1.155	0.44400	0.447	10.910	1.776	0.000
13.47	1.156	0.44430	0.448	10.917	1.777	0.000
13.48	1.156	0.44470	0.448	10.917	1.779	0.000
13.49	1.156	0.44500	0.448	10.924	1.780	0.000
13.5	1.157	0.44530	0.449	10.931	1.781	0.000
13.51	1.158	0.44570	0.449	10.938	1.783	0.000
13.52	1.158	0.44600	0.449	10.945	1.784	0.000
13.53	1.159	0.44630	0.450	10.952	1.785	0.000
13.54	1.161	0.44670	0.450	10.966	1.787	0.000
13.55	1.161	0.44700	0.450	10.973	1.788	0.000
13.56	1.161	0.44730	0.451	10.973	1.789	0.000
13.57	1.162	0.44770	0.451	10.980	1.791	0.000
13.58	1.163	0.44800	0.451	10.987	1.792	0.000
13.59	1.164	0.44830	0.452	10.994	1.793	0.000
13.6	1.165	0.44870	0.452	11.008	1.795	0.000
13.609	1.165	0.44900	0.452	11.008	1.796	0.000
13.619	1.167	0.44930	0.453	11.022	1.797	0.000
13.629	1.168	0.44960	0.453	11.036	1.798	0.000
13.639	1.167	0.45000	0.453	11.022	1.800	0.000
13.649	1.168	0.45030	0.454	11.036	1.801	0.000
13.659	1.169	0.45060	0.454	11.050	1.802	0.000
13.669	1.170	0.45100	0.454	11.057	1.804	0.000
13.679	1.171	0.45130	0.455	11.064	1.805	0.000
13.69	1.172	0.45170	0.455	11.070	1.807	0.000
13.7	1.173	0.45200	0.455	11.078	1.808	0.000
13.71	1.173	0.45230	0.456	11.085	1.809	0.000
13.72	1.175	0.45270	0.456	11.099	1.811	0.000
13.73	1.174	0.45300	0.456	11.092	1.812	0.000
13.74	1.175	0.45330	0.457	11.099	1.813	0.000
13.75	1.176	0.45370	0.457	11.113	1.815	0.000
13.76	1.176	0.45400	0.457	11.113	1.816	0.000
13.77	1.178	0.45430	0.458	11.127	1.817	0.000
13.78	1.178	0.45470	0.458	11.134	1.819	0.000
13.79	1.179	0.45500	0.458	11.140	1.820	0.000
13.8	1.181	0.45530	0.459	11.155	1.821	0.000
13.81	1.181	0.45570	0.459	11.162	1.823	0.000
13.82	1.181	0.45600	0.459	11.162	1.824	0.000
13.83	1.181	0.45630	0.460	11.162	1.825	0.000
13.84	1.182	0.45670	0.460	11.169	1.827	0.000
13.85	1.184	0.45700	0.460	11.183	1.828	0.000
13.859	1.186	0.45730	0.461	11.204	1.829	0.000
13.869	1.186	0.45760	0.461	11.204	1.830	0.000
13.879	1.186	0.45800	0.461	11.204	1.832	0.000
13.889	1.186	0.45830	0.462	11.210	1.833	0.000
13.899	1.187	0.45860	0.462	11.218	1.834	0.000
13.909	1.189	0.45900	0.462	11.232	1.836	0.000
13.919	1.189	0.45930	0.463	11.239	1.837	0.000
13.929	1.189	0.45960	0.463	11.239	1.838	0.000
13.94	1.190	0.46000	0.463	11.245	1.840	0.000
13.95	1.191	0.46030	0.464	11.253	1.841	0.000
13.96	1.192	0.46070	0.464	11.259	1.843	0.000
13.97	1.193	0.46100	0.464	11.274	1.844	0.000
13.98	1.194	0.46130	0.465	11.280	1.845	0.000
13.99	1.194	0.46170	0.465	11.280	1.847	0.000
14	1.195	0.46200	0.465	11.294	1.848	0.000
14.01	1.195	0.46230	0.466	11.294	1.849	0.000
14.02	1.195	0.46270	0.466	11.294	1.851	0.000
14.03	1.197	0.46300	0.466	11.309	1.852	0.000
14.04	1.198	0.46330	0.467	11.315	1.853	0.000
14.05	1.198	0.46370	0.467	11.323	1.855	0.000
14.06	1.200	0.46400	0.467	11.337	1.856	0.000
14.07	1.201	0.46430	0.468	11.344	1.857	0.000
14.08	1.201	0.46470	0.468	11.344	1.859	0.000
14.09	1.202	0.46500	0.468	11.358	1.860	0.000
14.1	1.203	0.46530	0.469	11.364	1.861	0.000
14.109	1.203	0.46560	0.469	11.364	1.862	0.000
14.119	1.204	0.46600	0.469	11.378	1.864	0.000
14.129	1.206	0.46630	0.470	11.393	1.865	0.000
14.139	1.206	0.46660	0.470	11.393	1.866	0.000
14.149	1.206	0.46700	0.470	11.393	1.868	0.000
14.159	1.207	0.46730	0.471	11.407	1.869	0.000
14.169	1.209	0.46760	0.471	11.420	1.870	0.000
14.179	1.209	0.46800	0.471	11.428	1.872	0.000
14.19	1.209	0.46830	0.472	11.428	1.873	0.000
14.2	1.210	0.46870	0.472	11.434	1.875	0.000
14.21	1.212	0.46900	0.472	11.448	1.876	0.000
14.22	1.211	0.46930	0.473	11.442	1.877	0.000
14.23	1.212	0.46970	0.473	11.455	1.879	0.000
14.24	1.214	0.47000	0.473	11.469	1.880	0.000
14.25	1.214	0.47030	0.474	11.469	1.881	0.000
14.26	1.215	0.47070	0.474	11.477	1.883	0.000
14.27	1.215	0.47100	0.474	11.483	1.884	0.000
14.28	1.217	0.47130	0.475	11.498	1.885	0.000
14.29	1.218	0.47170	0.475	11.504	1.887	0.000
14.3	1.218	0.47200	0.475	11.504	1.888	0.000
14.31	1.218	0.47230	0.476	11.512	1.889	0.000
14.32	1.220	0.47270	0.476	11.526	1.891	0.000
14.33	1.221	0.47300	0.476	11.533	1.892	0.000
14.34	1.221	0.47330	0.477	11.539	1.893	0.000
14.35	1.221	0.47370	0.477	11.539	1.895	0.000
14.359	1.222	0.47400	0.477	11.547	1.896	0.000
14.369	1.223	0.47430	0.478	11.553	1.897	0.000
14.379	1.224	0.47460	0.478	11.561	1.898	0.000
14.389	1.225	0.47500	0.478	11.574	1.900	0.000
14.399	1.226	0.47530	0.479	11.582	1.901	0.000
14.409	1.227	0.47560	0.479	11.588	1.902	0.000
14.419	1.227	0.47600	0.479	11.588	1.904	0.000
14.429	1.227	0.47630	0.480	11.596	1.905	0.000
14.44	1.228	0.47670	0.480	11.602	1.907	0.000
14.45	1.229	0.47700	0.480	11.609	1.908	0.000
14.46	1.230	0.47730	0.481	11.617	1.909	0.000
14.47	1.230	0.47770	0.481	11.623	1.911	0.000
14.48	1.232	0.47800	0.481	11.637	1.912	0.000
14.49	1.232	0.47830	0.482	11.637	1.913	0.000
14.5	1.232	0.47870	0.482	11.644	1.915	0.000
14.51	1.234	0.47900	0.482	11.658	1.916	0.000
14.52	1.235	0.47930	0.483	11.666	1.917	0.000
14.53	1.235	0.47970	0.483	11.672	1.919	0.000
14.54	1.235	0.48000	0.483	11.672	1.920	0.000
14.55	1.237	0.48030	0.484	11.687	1.921	0.000
14.56	1.238	0.48070	0.484	11.693	1.923	0.000
14.57	1.238	0.48100	0.484	11.693	1.924	0.000
14.58	1.238	0.48130	0.485	11.701	1.925	0.000
14.59	1.239	0.48170	0.485	11.707	1.927	0.000
14.6	1.241	0.48200	0.485	11.721	1.928	0.000
14.609	1.241	0.48230	0.486	11.721	1.929	0.000
14.619	1.241	0.48260	0.486	11.728	1.930	0.000
14.629	1.243	0.48300	0.486	11.742	1.932	0.000
14.639	1.243	0.48330	0.487	11.749	1.933	0.000
14.649	1.245	0.48360	0.487	11.763	1.934	0.000
14.659	1.245	0.48400	0.487	11.763	1.936	0.000
14.669	1.246	0.48430	0.488	11.771	1.937	0.000
14.679	1.247	0.48460	0.488	11.777	1.938	0.000
14.69	1.247	0.48500	0.488	11.784	1.940	0.000
14.7	1.248	0.48530	0.489	11.791	1.941	0.000
14.71	1.249	0.48570	0.489	11.798	1.943	0.000
14.72	1.250	0.48600	0.489	11.806	1.944	0.000
14.73	1.250	0.48630	0.490	11.812	1.945	0.000
14.74	1.252	0.48670	0.490	11.826	1.947	0.000
14.75	1.251	0.48700	0.490	11.819	1.948	0.000
14.76	1.252	0.48730	0.491	11.826	1.949	0.000
14.77	1.254	0.48770	0.491	11.847	1.951	0.000
14.78	1.254	0.48800	0.491	11.847	1.952	0.000
14.79	1.255	0.48830	0.492	11.854	1.953	0.000
14.8	1.257	0.48870	0.492	11.875	1.955	0.000
14.81	1.256	0.48900	0.492	11.868	1.956	0.000
14.82	1.256	0.48930	0.493	11.868	1.957	0.000
14.83	1.258	0.48970	0.493	11.889	1.959	0.000
14.84	1.259	0.49000	0.493	11.896	1.960	0.000
14.85	1.260	0.49030	0.494	11.903	1.961	0.000
14.859	1.261	0.49060	0.494	11.910	1.962	0.000
14.869	1.261	0.49100	0.494	11.910	1.964	0.000
14.879	1.262	0.49130	0.495	11.924	1.965	0.000
14.889	1.263	0.49160	0.495	11.931	1.966	0.000
14.899	1.263	0.49200	0.495	11.931	1.968	0.000
14.909	1.264	0.49230	0.496	11.945	1.969	0.000
14.919	1.265	0.49260	0.496	11.952	1.970	0.000
14.929	1.266	0.49300	0.496	11.959	1.972	0.000
14.94	1.266	0.49330	0.497	11.959	1.973	0.000
14.95	1.266	0.49370	0.497	11.966	1.975	0.000
14.96	1.269	0.49400	0.497	11.987	1.976	0.000
14.97	1.269	0.49430	0.498	11.987	1.977	0.000
14.98	1.269	0.49470	0.498	11.994	1.979	0.000
14.99	1.271	0.49500	0.498	12.008	1.980	0.000
15	1.270	0.49530	0.499	12.001	1.981	0.000
15.01	1.272	0.49570	0.499	12.022	1.983	0.000
15.02	1.274	0.49600	0.499	12.036	1.984	0.000
15.03	1.273	0.49630	0.500	12.029	1.985	0.000
15.04	1.274	0.49670	0.500	12.036	1.987	0.000
15.05	1.275	0.49700	0.500	12.043	1.988	0.000
15.06	1.275	0.49730	0.501	12.050	1.989	0.000
15.07	1.276	0.49770	0.501	12.057	1.991	0.000
15.08	1.277	0.49800	0.501	12.063	1.992	0.000
15.09	1.278	0.49830	0.502	12.078	1.993	0.000
15.1	1.279	0.49870	0.502	12.085	1.995	0.000
15.109	1.279	0.49900	0.502	12.085	1.996	0.000
15.119	1.280	0.49930	0.503	12.092	1.997	0.000
15.129	1.281	0.49960	0.503	12.098	1.998	0.000
15.139	1.281	0.50000	0.503	12.106	2.000	0.000
15.149	1.281	0.50030	0.504	12.106	2.001	0.000
15.159	1.283	0.50060	0.504	12.120	2.002	0.000
15.169	1.284	0.50100	0.504	12.133	2.004	0.000
15.179	1.284	0.50130	0.505	12.133	2.005	0.000
15.19	1.285	0.50170	0.505	12.141	2.007	0.000
15.2	1.286	0.50200	0.505	12.148	2.008	0.000
15.21	1.286	0.50230	0.506	12.155	2.009	0.000
15.22	1.288	0.50270	0.506	12.168	2.011	0.000
15.23	1.289	0.50300	0.506	12.176	2.012	0.000
15.24	1.289	0.50330	0.507	12.176	2.013	0.000
15.25	1.289	0.50370	0.507	12.183	2.015	0.000
15.26	1.290	0.50400	0.507	12.190	2.016	0.000
15.27	1.291	0.50430	0.508	12.197	2.017	0.000
15.28	1.292	0.50470	0.508	12.204	2.019	0.000
15.29	1.292	0.50500	0.508	12.211	2.020	0.000
15.3	1.293	0.50530	0.509	12.217	2.021	0.000
15.31	1.295	0.50570	0.509	12.232	2.023	0.000
15.32	1.295	0.50600	0.509	12.239	2.024	0.000
15.33	1.295	0.50630	0.510	12.239	2.025	0.000
15.34	1.297	0.50670	0.510	12.252	2.027	0.000
15.35	1.298	0.50700	0.510	12.260	2.028	0.000
15.359	1.298	0.50730	0.511	12.267	2.029	0.000
15.369	1.298	0.50760	0.511	12.267	2.030	0.000
15.379	1.299	0.50800	0.511	12.274	2.032	0.000
15.389	1.300	0.50830	0.512	12.281	2.033	0.000
15.399	1.301	0.50860	0.512	12.287	2.034	0.000
15.409	1.302	0.50900	0.512	12.302	2.036	0.000
15.419	1.303	0.50930	0.513	12.309	2.037	0.000
15.429	1.304	0.50960	0.513	12.316	2.038	0.000
15.44	1.304	0.51000	0.513	12.322	2.040	0.000
15.45	1.305	0.51030	0.514	12.330	2.041	0.000
15.46	1.306	0.51070	0.514	12.337	2.043	0.000
15.47	1.306	0.51100	0.514	12.344	2.044	0.000
15.48	1.307	0.51130	0.515	12.351	2.045	0.000
15.49	1.307	0.51170	0.515	12.351	2.047	0.000
15.5	1.309	0.51200	0.515	12.365	2.048	0.000
15.51	1.309	0.51230	0.516	12.372	2.049	0.000
15.52	1.309	0.51270	0.516	12.372	2.051	0.000
15.53	1.311	0.51300	0.516	12.386	2.052	0.000
15.54	1.312	0.51330	0.517	12.392	2.053	0.000
15.55	1.312	0.51370	0.517	12.400	2.055	0.000
15.56	1.313	0.51400	0.517	12.406	2.056	0.000
15.57	1.315	0.51430	0.518	12.427	2.057	0.000
15.58	1.315	0.51470	0.518	12.427	2.059	0.000
15.59	1.315	0.51500	0.518	12.427	2.060	0.000
15.6	1.316	0.51530	0.519	12.435	2.061	0.000
15.609	1.316	0.51560	0.519	12.435	2.062	0.000
15.619	1.318	0.51600	0.519	12.449	2.064	0.000
15.629	1.319	0.51630	0.520	12.462	2.065	0.000
15.639	1.319	0.51660	0.520	12.462	2.066	0.000
15.649	1.319	0.51700	0.520	12.462	2.068	0.000
15.659	1.321	0.51730	0.521	12.476	2.069	0.000
15.669	1.321	0.51760	0.521	12.484	2.070	0.000
15.679	1.322	0.51800	0.521	12.491	2.072	0.000
15.69	1.322	0.51830	0.522	12.491	2.073	0.000
15.7	1.324	0.51870	0.522	12.505	2.075	0.000
15.71	1.324	0.51900	0.522	12.511	2.076	0.000
15.72	1.325	0.51930	0.523	12.519	2.077	0.000
15.73	1.326	0.51970	0.523	12.532	2.079	0.000
15.74	1.326	0.52000	0.523	12.532	2.080	0.000
15.75	1.327	0.52030	0.524	12.540	2.081	0.000
15.76	1.327	0.52070	0.524	12.540	2.083	0.000
15.77	1.328	0.52100	0.524	12.546	2.084	0.000
15.78	1.329	0.52130	0.525	12.560	2.085	0.000
15.79	1.330	0.52170	0.525	12.567	2.087	0.000
15.8	1.331	0.52200	0.525	12.575	2.088	0.000
15.81	1.332	0.52230	0.526	12.581	2.089	0.000
15.82	1.332	0.52270	0.526	12.589	2.091	0.000
15.83	1.333	0.52300	0.526	12.595	2.092	0.000
15.84	1.334	0.52330	0.527	12.602	2.093	0.000
15.85	1.335	0.52370	0.527	12.616	2.095	0.000
15.859	1.335	0.52400	0.527	12.616	2.096	0.000
15.869	1.336	0.52430	0.528	12.624	2.097	0.000
15.879	1.337	0.52460	0.528	12.630	2.098	0.000
15.889	1.337	0.52500	0.528	12.637	2.100	0.000
15.899	1.338	0.52530	0.529	12.645	2.101	0.000
15.909	1.339	0.52560	0.529	12.651	2.102	0.000
15.919	1.340	0.52600	0.529	12.665	2.104	0.000
15.929	1.340	0.52630	0.530	12.665	2.105	0.000
15.94	1.341	0.52670	0.530	12.672	2.107	0.000
15.95	1.343	0.52700	0.530	12.686	2.108	0.000
15.96	1.344	0.52730	0.531	12.694	2.109	0.000
15.97	1.344	0.52770	0.531	12.694	2.111	0.000
15.98	1.344	0.52800	0.531	12.700	2.112	0.000
15.99	1.345	0.52830	0.532	12.707	2.113	0.000
16	1.346	0.52870	0.532	12.714	2.115	0.000
16.01	1.347	0.52900	0.532	12.729	2.116	0.000
16.02	1.348	0.52930	0.533	12.735	2.117	0.000
16.03	1.349	0.52970	0.533	12.742	2.119	0.000
16.04	1.350	0.53000	0.534	12.756	2.120	0.000
16.05	1.349	0.53030	0.534	12.749	2.121	0.000
16.06	1.350	0.53070	0.534	12.756	2.123	0.000
16.07	1.352	0.53100	0.534	12.770	2.124	0.000
16.08	1.352	0.53130	0.535	12.770	2.125	0.000
16.09	1.352	0.53170	0.535	12.777	2.127	0.000
16.1	1.354	0.53200	0.535	12.791	2.128	0.000
16.109	1.355	0.53230	0.536	12.799	2.129	0.000
16.119	1.355	0.53260	0.536	12.799	2.130	0.000
16.129	1.356	0.53300	0.536	12.812	2.132	0.000
16.139	1.357	0.53330	0.537	12.819	2.133	0.000
16.149	1.357	0.53360	0.537	12.826	2.134	0.000
16.159	1.358	0.53400	0.538	12.834	2.136	0.000
16.169	1.359	0.53430	0.538	12.840	2.137	0.000
16.179	1.360	0.53460	0.538	12.847	2.138	0.000
16.19	1.360	0.53500	0.538	12.847	2.140	0.000
16.2	1.360	0.53530	0.539	12.854	2.141	0.000
16.21	1.361	0.53570	0.539	12.861	2.143	0.000
16.22	1.363	0.53600	0.539	12.875	2.144	0.000
16.23	1.364	0.53630	0.540	12.889	2.145	0.000
16.24	1.364	0.53670	0.540	12.889	2.147	0.000
16.25	1.364	0.53700	0.540	12.889	2.148	0.000
16.26	1.365	0.53730	0.541	12.896	2.149	0.000
16.27	1.366	0.53770	0.541	12.910	2.151	0.000
16.28	1.367	0.53800	0.541	12.918	2.152	0.000
16.29	1.367	0.53830	0.542	12.918	2.153	0.000
16.3	1.368	0.53870	0.542	12.924	2.155	0.000
16.31	1.369	0.53900	0.542	12.938	2.156	0.000
16.32	1.369	0.53930	0.543	12.938	2.157	0.000
16.33	1.370	0.53970	0.543	12.945	2.159	0.000
16.34	1.372	0.54000	0.543	12.959	2.160	0.000
16.35	1.372	0.54030	0.544	12.959	2.161	0.000
16.359	1.373	0.54060	0.544	12.973	2.162	0.000
16.369	1.374	0.54100	0.544	12.980	2.164	0.000
16.379	1.375	0.54130	0.545	12.988	2.165	0.000
16.389	1.376	0.54160	0.545	13.001	2.166	0.000
16.399	1.375	0.54200	0.545	12.994	2.168	0.000
16.409	1.376	0.54230	0.546	13.001	2.169	0.000
16.419	1.378	0.54260	0.546	13.015	2.170	0.000
16.429	1.378	0.54300	0.546	13.015	2.172	0.000
16.44	1.378	0.54330	0.547	13.022	2.173	0.000
16.45	1.380	0.54370	0.547	13.036	2.175	0.000
16.46	1.380	0.54400	0.547	13.043	2.176	0.000
16.47	1.382	0.54430	0.548	13.057	2.177	0.000
16.48	1.383	0.54470	0.548	13.064	2.179	0.000
16.49	1.382	0.54500	0.548	13.057	2.180	0.000
16.5	1.383	0.54530	0.549	13.064	2.181	0.000
16.51	1.384	0.54570	0.549	13.078	2.183	0.000
16.52	1.385	0.54600	0.549	13.085	2.184	0.000
16.53	1.386	0.54630	0.550	13.092	2.185	0.000
16.54	1.387	0.54670	0.550	13.106	2.187	0.000
16.55	1.386	0.54700	0.550	13.099	2.188	0.000
16.56	1.386	0.54730	0.551	13.099	2.189	0.000
16.57	1.389	0.54770	0.551	13.120	2.191	0.000
16.58	1.389	0.54800	0.551	13.127	2.192	0.000
16.59	1.390	0.54830	0.552	13.134	2.193	0.000
16.6	1.391	0.54870	0.552	13.141	2.195	0.000
16.609	1.392	0.54900	0.552	13.148	2.196	0.000
16.619	1.392	0.54930	0.553	13.148	2.197	0.000
16.629	1.392	0.54960	0.553	13.155	2.198	0.000
16.639	1.394	0.55000	0.553	13.169	2.200	0.000
16.649	1.394	0.55030	0.554	13.169	2.201	0.000
16.659	1.395	0.55060	0.554	13.183	2.202	0.000
16.669	1.397	0.55100	0.554	13.197	2.204	0.000
16.679	1.396	0.55130	0.555	13.190	2.205	0.000
16.69	1.396	0.55170	0.555	13.190	2.207	0.000
16.7	1.398	0.55200	0.555	13.211	2.208	0.000
16.71	1.399	0.55230	0.556	13.218	2.209	0.000
16.72	1.399	0.55270	0.556	13.218	2.211	0.000
16.73	1.401	0.55300	0.556	13.232	2.212	0.000
16.74	1.401	0.55330	0.557	13.239	2.213	0.000
16.75	1.401	0.55370	0.557	13.239	2.215	0.000
16.76	1.402	0.55400	0.557	13.245	2.216	0.000
16.77	1.403	0.55430	0.558	13.260	2.217	0.000
16.78	1.404	0.55470	0.558	13.267	2.219	0.000
16.79	1.403	0.55500	0.558	13.260	2.220	0.000
16.8	1.405	0.55540	0.559	13.274	2.222	0.000
16.81	1.406	0.55570	0.559	13.288	2.223	0.000
16.82	1.406	0.55600	0.559	13.288	2.224	0.000
16.83	1.407	0.55610	0.560	13.295	2.224	0.000
16.84	1.408	0.55640	0.560	13.302	2.226	0.000
16.85	1.409	0.55680	0.560	13.315	2.227	0.000
16.859	1.410	0.55710	0.561	13.323	2.228	0.000
16.869	1.410	0.55740	0.561	13.323	2.230	0.000
16.879	1.411	0.55770	0.561	13.330	2.231	0.000
16.889	1.412	0.55800	0.562	13.337	2.232	0.000
16.899	1.412	0.55840	0.562	13.344	2.234	0.000
16.909	1.413	0.55870	0.562	13.350	2.235	0.000
16.919	1.414	0.55900	0.563	13.365	2.236	0.000
16.929	1.415	0.55930	0.563	13.372	2.237	0.000
16.94	1.414	0.55970	0.563	13.365	2.239	0.000
16.95	1.415	0.56000	0.564	13.372	2.240	0.000
16.96	1.417	0.56040	0.564	13.385	2.242	0.000
16.97	1.418	0.56070	0.564	13.393	2.243	0.000
16.98	1.418	0.56100	0.565	13.399	2.244	0.000
16.99	1.419	0.56140	0.565	13.407	2.246	0.000
17	1.420	0.56170	0.565	13.414	2.247	0.000
17.01	1.420	0.56200	0.566	13.420	2.248	0.000
17.02	1.420	0.56230	0.566	13.420	2.249	0.000
17.03	1.421	0.56270	0.566	13.428	2.251	0.000
17.04	1.423	0.56300	0.567	13.442	2.252	0.000
17.05	1.423	0.56330	0.567	13.449	2.253	0.000
17.06	1.423	0.56370	0.567	13.449	2.255	0.000
17.07	1.424	0.56400	0.568	13.455	2.256	0.000
17.08	1.426	0.56430	0.568	13.469	2.257	0.000
17.09	1.426	0.56470	0.568	13.477	2.259	0.000
17.1	1.426	0.56500	0.569	13.477	2.260	0.000
17.109	1.426	0.56530	0.569	13.477	2.261	0.000
17.119	1.428	0.56560	0.569	13.490	2.262	0.000
17.129	1.429	0.56600	0.570	13.504	2.264	0.000
17.139	1.430	0.56630	0.570	13.512	2.265	0.000
17.149	1.432	0.56660	0.570	13.526	2.266	0.000
17.159	1.432	0.56700	0.571	13.526	2.268	0.000
17.169	1.432	0.56730	0.571	13.526	2.269	0.000
17.179	1.433	0.56760	0.571	13.539	2.270	0.000
17.19	1.433	0.56800	0.572	13.539	2.272	0.000
17.2	1.434	0.56830	0.572	13.553	2.273	0.000
17.21	1.435	0.56870	0.572	13.561	2.275	0.000
17.22	1.434	0.56900	0.573	13.553	2.276	0.000
17.23	1.436	0.56930	0.573	13.568	2.277	0.000
17.24	1.437	0.56970	0.573	13.574	2.279	0.000
17.25	1.438	0.57000	0.574	13.588	2.280	0.000
17.26	1.439	0.57030	0.574	13.596	2.281	0.000
17.27	1.438	0.57070	0.574	13.588	2.283	0.000
17.28	1.440	0.57100	0.575	13.603	2.284	0.000
17.29	1.441	0.57130	0.575	13.617	2.285	0.000
17.3	1.442	0.57170	0.575	13.623	2.287	0.000
17.31	1.443	0.57200	0.576	13.631	2.288	0.000
17.32	1.443	0.57230	0.576	13.631	2.289	0.000
17.33	1.443	0.57270	0.576	13.638	2.291	0.000
17.34	1.445	0.57300	0.577	13.652	2.292	0.000
17.35	1.445	0.57330	0.577	13.652	2.293	0.000
17.359	1.446	0.57360	0.577	13.658	2.294	0.000
17.369	1.447	0.57400	0.578	13.673	2.296	0.000
17.379	1.446	0.57430	0.578	13.666	2.297	0.000
17.389	1.447	0.57460	0.578	13.673	2.298	0.000
17.399	1.449	0.57500	0.579	13.693	2.300	0.000
17.409	1.449	0.57530	0.579	13.693	2.301	0.000
17.419	1.450	0.57560	0.579	13.701	2.302	0.000
17.429	1.452	0.57600	0.580	13.714	2.304	0.000
17.44	1.452	0.57630	0.580	13.714	2.305	0.000
17.45	1.453	0.57670	0.580	13.728	2.307	0.000
17.46	1.453	0.57700	0.581	13.728	2.308	0.000
17.47	1.453	0.57730	0.581	13.728	2.309	0.000
17.48	1.455	0.57770	0.581	13.749	2.311	0.000
17.49	1.456	0.57800	0.582	13.757	2.312	0.000
17.5	1.456	0.57840	0.582	13.757	2.314	0.000
17.51	1.457	0.57870	0.582	13.763	2.315	0.000
17.52	1.457	0.57900	0.583	13.771	2.316	0.000
17.53	1.459	0.57940	0.583	13.784	2.318	0.000
17.54	1.459	0.57970	0.583	13.784	2.319	0.000
17.55	1.460	0.58000	0.584	13.792	2.320	0.000
17.56	1.461	0.58040	0.584	13.806	2.322	0.000
17.57	1.461	0.58070	0.584	13.806	2.323	0.000
17.58	1.462	0.58100	0.585	13.812	2.324	0.000
17.59	1.462	0.58140	0.585	13.812	2.326	0.000
17.6	1.463	0.58170	0.585	13.819	2.327	0.000
17.609	1.464	0.58200	0.586	13.833	2.328	0.000
17.619	1.465	0.58230	0.586	13.841	2.329	0.000
17.629	1.466	0.58260	0.586	13.854	2.330	0.000
17.639	1.466	0.58300	0.587	13.854	2.332	0.000
17.649	1.466	0.58330	0.587	13.854	2.333	0.000
17.659	1.468	0.58360	0.587	13.868	2.334	0.000
17.669	1.469	0.58400	0.588	13.876	2.336	0.000
17.679	1.469	0.58430	0.588	13.882	2.337	0.000
17.69	1.470	0.58470	0.588	13.889	2.339	0.000
17.7	1.470	0.58500	0.589	13.889	2.340	0.000
17.71	1.471	0.58530	0.589	13.896	2.341	0.000
17.72	1.472	0.58570	0.589	13.911	2.343	0.000
17.73	1.473	0.58600	0.590	13.917	2.344	0.000
17.74	1.474	0.58630	0.590	13.924	2.345	0.000
17.75	1.474	0.58670	0.590	13.931	2.347	0.000
17.76	1.476	0.58700	0.591	13.946	2.348	0.000
17.77	1.476	0.58730	0.591	13.946	2.349	0.000
17.78	1.476	0.58770	0.591	13.946	2.351	0.000
17.79	1.477	0.58800	0.592	13.952	2.352	0.000
17.8	1.477	0.58830	0.592	13.959	2.353	0.000
17.81	1.478	0.58870	0.592	13.966	2.355	0.000
17.82	1.479	0.58900	0.593	13.973	2.356	0.000
17.83	1.481	0.58930	0.593	13.994	2.357	0.000
17.84	1.481	0.58970	0.593	13.994	2.359	0.000
17.85	1.480	0.59000	0.594	13.987	2.360	0.000
17.859	1.483	0.59030	0.594	14.008	2.361	0.000
17.869	1.483	0.59060	0.594	14.015	2.362	0.000
17.879	1.483	0.59100	0.595	14.015	2.364	0.000
17.889	1.485	0.59130	0.595	14.029	2.365	0.000
17.899	1.485	0.59160	0.595	14.029	2.366	0.000
17.909	1.486	0.59200	0.596	14.036	2.368	0.000
17.919	1.487	0.59230	0.596	14.050	2.369	0.000
17.929	1.487	0.59260	0.596	14.050	2.370	0.000
17.94	1.488	0.59300	0.597	14.064	2.372	0.000
17.95	1.489	0.59330	0.597	14.071	2.373	0.000
17.96	1.489	0.59370	0.597	14.071	2.375	0.000
17.97	1.491	0.59400	0.598	14.085	2.376	0.000
17.98	1.492	0.59430	0.598	14.092	2.377	0.000
17.99	1.492	0.59470	0.599	14.099	2.379	0.000
18	1.492	0.59500	0.599	14.099	2.380	0.000
18.01	1.493	0.59530	0.599	14.106	2.381	0.000
18.02	1.494	0.59570	0.599	14.113	2.383	0.000
18.03	1.495	0.59600	0.600	14.120	2.384	0.000
18.04	1.496	0.59630	0.600	14.134	2.385	0.000
18.05	1.496	0.59670	0.600	14.134	2.387	0.000
18.06	1.496	0.59700	0.601	14.134	2.388	0.000
18.07	1.497	0.59730	0.601	14.148	2.389	0.000
18.08	1.499	0.59770	0.601	14.162	2.391	0.000
18.09	1.500	0.59800	0.602	14.169	2.392	0.000
18.1	1.500	0.59830	0.602	14.176	2.393	0.000
18.109	1.500	0.59860	0.602	14.169	2.394	0.000
18.119	1.500	0.59900	0.603	14.176	2.396	0.000
18.129	1.503	0.59930	0.603	14.197	2.397	0.000
18.139	1.503	0.59960	0.603	14.204	2.398	0.000
18.149	1.503	0.60000	0.604	14.204	2.400	0.000
18.159	1.503	0.60030	0.604	14.204	2.401	0.000
18.169	1.506	0.60060	0.604	14.225	2.402	0.000
18.179	1.506	0.60100	0.605	14.225	2.404	0.000
18.19	1.506	0.60130	0.605	14.232	2.405	0.000
18.2	1.508	0.60170	0.605	14.253	2.407	0.000
18.21	1.507	0.60200	0.606	14.239	2.408	0.000
18.22	1.508	0.60230	0.606	14.253	2.409	0.000
18.23	1.509	0.60270	0.606	14.260	2.411	0.000
18.24	1.509	0.60300	0.607	14.260	2.412	0.000
18.25	1.511	0.60330	0.607	14.274	2.413	0.000
18.26	1.511	0.60370	0.607	14.274	2.415	0.000
18.27	1.512	0.60400	0.608	14.288	2.416	0.000
18.28	1.514	0.60430	0.608	14.302	2.417	0.000
18.29	1.512	0.60470	0.609	14.288	2.419	0.000
18.3	1.513	0.60500	0.609	14.295	2.420	0.000
18.31	1.516	0.60530	0.609	14.323	2.421	0.000
18.32	1.517	0.60570	0.609	14.330	2.423	0.000
18.33	1.516	0.60600	0.610	14.323	2.424	0.000
18.34	1.517	0.60630	0.610	14.330	2.425	0.000
18.35	1.518	0.60670	0.610	14.344	2.427	0.000
18.359	1.517	0.60700	0.611	14.337	2.428	0.000
18.369	1.519	0.60730	0.611	14.351	2.429	0.000
18.379	1.520	0.60760	0.611	14.365	2.430	0.000
18.389	1.520	0.60800	0.612	14.365	2.432	0.000
18.399	1.522	0.60830	0.612	14.379	2.433	0.000
18.409	1.523	0.60860	0.612	14.386	2.434	0.000
18.419	1.523	0.60900	0.613	14.392	2.436	0.000
18.429	1.524	0.60930	0.613	14.400	2.437	0.000
18.44	1.524	0.60970	0.613	14.400	2.439	0.000
18.45	1.525	0.61000	0.614	14.407	2.440	0.000
18.46	1.526	0.61030	0.614	14.414	2.441	0.000
18.47	1.526	0.61070	0.614	14.414	2.443	0.000
18.48	1.527	0.61100	0.615	14.427	2.444	0.000
18.49	1.528	0.61130	0.615	14.435	2.445	0.000
18.5	1.528	0.61170	0.615	14.442	2.447	0.000
18.51	1.530	0.61200	0.616	14.456	2.448	0.000
18.52	1.530	0.61230	0.616	14.456	2.449	0.000
18.53	1.530	0.61270	0.616	14.456	2.451	0.000
18.54	1.531	0.61300	0.617	14.470	2.452	0.000
18.55	1.532	0.61330	0.617	14.477	2.453	0.000
18.56	1.533	0.61370	0.618	14.484	2.455	0.000
18.57	1.534	0.61400	0.618	14.497	2.456	0.000
18.58	1.534	0.61430	0.618	14.497	2.457	0.000
18.59	1.535	0.61470	0.618	14.505	2.459	0.000
18.6	1.536	0.61500	0.619	14.512	2.460	0.000
18.609	1.537	0.61530	0.619	14.519	2.461	0.000
18.619	1.537	0.61560	0.619	14.519	2.462	0.000
18.629	1.537	0.61600	0.620	14.526	2.464	0.000
18.639	1.540	0.61630	0.620	14.546	2.465	0.000
18.649	1.540	0.61660	0.620	14.554	2.466	0.000
18.659	1.540	0.61700	0.621	14.546	2.468	0.000
18.669	1.540	0.61730	0.621	14.554	2.469	0.000
18.679	1.542	0.61760	0.621	14.567	2.470	0.000
18.69	1.542	0.61800	0.622	14.567	2.472	0.000
18.7	1.543	0.61830	0.622	14.575	2.473	0.000
18.71	1.544	0.61870	0.622	14.589	2.475	0.000
18.72	1.545	0.61900	0.623	14.596	2.476	0.000
18.73	1.546	0.61930	0.623	14.602	2.477	0.000
18.74	1.546	0.61970	0.623	14.610	2.479	0.000
18.75	1.546	0.62000	0.624	14.610	2.480	0.000
18.76	1.546	0.62030	0.624	14.610	2.481	0.000
18.77	1.548	0.62070	0.624	14.631	2.483	0.000
18.78	1.549	0.62100	0.625	14.637	2.484	0.000
18.79	1.549	0.62130	0.625	14.637	2.485	0.000
18.8	1.551	0.62170	0.625	14.651	2.487	0.000
18.81	1.551	0.62200	0.626	14.651	2.488	0.000
18.82	1.551	0.62230	0.626	14.659	2.489	0.000
18.83	1.552	0.62270	0.626	14.666	2.491	0.000
18.84	1.554	0.62300	0.627	14.680	2.492	0.000
18.85	1.554	0.62330	0.627	14.680	2.493	0.000
18.859	1.554	0.62360	0.627	14.686	2.494	0.000
18.869	1.556	0.62400	0.628	14.700	2.496	0.000
18.879	1.555	0.62430	0.628	14.694	2.497	0.000
18.889	1.557	0.62460	0.628	14.707	2.498	0.000
18.899	1.558	0.62500	0.629	14.721	2.500	0.000
18.909	1.558	0.62530	0.629	14.721	2.501	0.000
18.919	1.560	0.62560	0.629	14.735	2.502	0.000
18.929	1.560	0.62600	0.630	14.735	2.504	0.000
18.94	1.560	0.62630	0.630	14.735	2.505	0.000
18.95	1.562	0.62670	0.630	14.756	2.507	0.000
18.96	1.562	0.62700	0.631	14.756	2.508	0.000
18.97	1.562	0.62730	0.631	14.756	2.509	0.000
18.98	1.563	0.62770	0.631	14.770	2.511	0.000
18.99	1.565	0.62800	0.632	14.785	2.512	0.000
19	1.565	0.62830	0.632	14.785	2.513	0.000
19.01	1.565	0.62870	0.632	14.785	2.515	0.000
19.02	1.566	0.62900	0.633	14.799	2.516	0.000
19.03	1.567	0.62930	0.633	14.805	2.517	0.000
19.04	1.567	0.62970	0.633	14.805	2.519	0.000
19.05	1.569	0.63000	0.634	14.820	2.520	0.000
19.06	1.569	0.63030	0.634	14.826	2.521	0.000
19.07	1.569	0.63070	0.634	14.820	2.523	0.000
19.08	1.570	0.63100	0.635	14.834	2.524	0.000
19.09	1.571	0.63130	0.635	14.847	2.525	0.000
19.1	1.571	0.63170	0.635	14.847	2.527	0.000
19.109	1.572	0.63200	0.636	14.854	2.528	0.000
19.119	1.573	0.63230	0.636	14.861	2.529	0.000
19.129	1.573	0.63260	0.636	14.861	2.530	0.000
19.139	1.574	0.63300	0.637	14.869	2.532	0.000
19.149	1.577	0.63330	0.637	14.896	2.533	0.000
19.159	1.577	0.63360	0.637	14.904	2.534	0.000
19.169	1.576	0.63400	0.638	14.889	2.536	0.000
19.179	1.577	0.63430	0.638	14.904	2.537	0.000
19.19	1.578	0.63470	0.638	14.910	2.539	0.000
19.2	1.578	0.63500	0.639	14.910	2.540	0.000
19.21	1.580	0.63530	0.639	14.924	2.541	0.000
19.22	1.580	0.63570	0.639	14.931	2.543	0.000
19.23	1.581	0.63600	0.640	14.939	2.544	0.000
19.24	1.582	0.63630	0.640	14.945	2.545	0.000
19.25	1.583	0.63670	0.640	14.953	2.547	0.000
19.26	1.584	0.63700	0.641	14.966	2.548	0.000
19.27	1.584	0.63730	0.641	14.966	2.549	0.000
19.28	1.584	0.63770	0.641	14.966	2.551	0.000
19.29	1.586	0.63800	0.642	14.980	2.552	0.000
19.3	1.586	0.63830	0.642	14.988	2.553	0.000
19.31	1.586	0.63870	0.642	14.988	2.555	0.000
19.32	1.587	0.63900	0.643	14.994	2.556	0.000
19.33	1.589	0.63930	0.643	15.009	2.557	0.000
19.34	1.589	0.63970	0.643	15.009	2.559	0.000
19.35	1.589	0.64000	0.644	15.015	2.560	0.000
19.359	1.591	0.64030	0.644	15.029	2.561	0.000
19.369	1.591	0.64060	0.644	15.036	2.562	0.000
19.379	1.591	0.64100	0.645	15.036	2.564	0.000
19.389	1.592	0.64130	0.645	15.043	2.565	0.000
19.399	1.593	0.64160	0.645	15.050	2.566	0.000
19.409	1.594	0.64200	0.646	15.058	2.568	0.000
19.419	1.595	0.64230	0.646	15.071	2.569	0.000
19.429	1.595	0.64260	0.646	15.071	2.570	0.000
19.44	1.596	0.64300	0.647	15.078	2.572	0.000
19.45	1.597	0.64330	0.647	15.085	2.573	0.000
19.46	1.597	0.64370	0.647	15.093	2.575	0.000
19.47	1.598	0.64400	0.648	15.099	2.576	0.000
19.48	1.598	0.64430	0.648	15.099	2.577	0.000
19.49	1.599	0.64470	0.648	15.106	2.579	0.000
19.5	1.600	0.64500	0.649	15.120	2.580	0.000
19.51	1.601	0.64530	0.649	15.128	2.581	0.000
19.52	1.602	0.64570	0.649	15.134	2.583	0.000
19.53	1.603	0.64600	0.650	15.148	2.584	0.000
19.54	1.603	0.64630	0.650	15.148	2.585	0.000
19.55	1.603	0.64670	0.650	15.148	2.587	0.000
19.56	1.605	0.64700	0.651	15.163	2.588	0.000
19.57	1.605	0.64730	0.651	15.169	2.589	0.000
19.58	1.606	0.64770	0.651	15.176	2.591	0.000
19.59	1.606	0.64800	0.652	15.176	2.592	0.000
19.6	1.606	0.64830	0.652	15.176	2.593	0.000
19.609	1.607	0.64860	0.652	15.183	2.594	0.000
19.619	1.608	0.64900	0.653	15.190	2.596	0.000
19.629	1.609	0.64930	0.653	15.204	2.597	0.000
19.639	1.611	0.64960	0.653	15.218	2.598	0.000
19.649	1.611	0.65000	0.654	15.218	2.600	0.000
19.659	1.611	0.65030	0.654	15.225	2.601	0.000
19.669	1.612	0.65060	0.654	15.232	2.602	0.000
19.679	1.612	0.65100	0.655	15.232	2.604	0.000
19.69	1.614	0.65130	0.655	15.246	2.605	0.000
19.7	1.614	0.65170	0.655	15.253	2.607	0.000
19.71	1.615	0.65200	0.656	15.260	2.608	0.000
19.72	1.615	0.65230	0.656	15.260	2.609	0.000
19.73	1.616	0.65270	0.656	15.267	2.611	0.000
19.74	1.617	0.65300	0.657	15.274	2.612	0.000
19.75	1.617	0.65330	0.657	15.281	2.613	0.000
19.76	1.620	0.65370	0.657	15.302	2.615	0.000
19.77	1.619	0.65400	0.658	15.295	2.616	0.000
19.78	1.619	0.65430	0.658	15.295	2.617	0.000
19.79	1.622	0.65470	0.658	15.323	2.619	0.000
19.8	1.622	0.65500	0.659	15.323	2.620	0.000
19.81	1.622	0.65530	0.659	15.323	2.621	0.000
19.82	1.623	0.65570	0.659	15.337	2.623	0.000
19.83	1.623	0.65600	0.660	15.337	2.624	0.000
19.84	1.623	0.65630	0.660	15.337	2.625	0.000
19.85	1.625	0.65670	0.660	15.358	2.627	0.000
19.859	1.626	0.65700	0.661	15.365	2.628	0.000
19.869	1.625	0.65730	0.661	15.358	2.629	0.000
19.879	1.627	0.65760	0.661	15.372	2.630	0.000
19.889	1.628	0.65800	0.662	15.385	2.632	0.000
19.899	1.628	0.65830	0.662	15.385	2.633	0.000
19.909	1.628	0.65860	0.662	15.385	2.634	0.000
19.919	1.630	0.65900	0.663	15.400	2.636	0.000
19.929	1.631	0.65930	0.663	15.407	2.637	0.000
19.94	1.631	0.65970	0.663	15.414	2.639	0.000
19.95	1.631	0.66000	0.664	15.414	2.640	0.000
19.96	1.632	0.66030	0.664	15.420	2.641	0.000
19.97	1.633	0.66070	0.664	15.428	2.643	0.000
19.98	1.633	0.66100	0.665	15.428	2.644	0.000
19.99	1.635	0.66130	0.665	15.449	2.645	0.000
20	1.636	0.66170	0.665	15.455	2.647	0.000
20.01	1.636	0.66200	0.666	15.455	2.648	0.000
20.02	1.637	0.66230	0.666	15.463	2.649	0.000
20.03	1.637	0.66270	0.666	15.463	2.651	0.000
20.04	1.637	0.66300	0.667	15.463	2.652	0.000
20.05	1.638	0.66330	0.667	15.477	2.653	0.000
20.06	1.640	0.66370	0.667	15.490	2.655	0.000
20.07	1.640	0.66400	0.668	15.498	2.656	0.000
20.08	1.640	0.66430	0.668	15.498	2.657	0.000
20.09	1.641	0.66470	0.668	15.505	2.659	0.000
20.1	1.643	0.66500	0.669	15.519	2.660	0.000
20.109	1.643	0.66530	0.669	15.525	2.661	0.000
20.119	1.644	0.66560	0.669	15.533	2.662	0.000
20.129	1.644	0.66600	0.670	15.533	2.664	0.000
20.139	1.645	0.66630	0.670	15.547	2.665	0.000
20.149	1.646	0.66660	0.670	15.554	2.666	0.000
20.159	1.646	0.66700	0.671	15.554	2.668	0.000
20.169	1.647	0.66730	0.671	15.561	2.669	0.000
20.179	1.648	0.66760	0.671	15.568	2.670	0.000
20.19	1.648	0.66800	0.672	15.574	2.672	0.000
20.2	1.649	0.66830	0.672	15.582	2.673	0.000
20.21	1.650	0.66870	0.672	15.589	2.675	0.000
20.22	1.650	0.66900	0.673	15.589	2.676	0.000
20.23	1.651	0.66930	0.673	15.596	2.677	0.000
20.24	1.652	0.66970	0.673	15.609	2.679	0.000
20.25	1.652	0.67000	0.674	15.609	2.680	0.000
20.26	1.652	0.67030	0.674	15.609	2.681	0.000
20.27	1.654	0.67070	0.674	15.624	2.683	0.000
20.28	1.655	0.67100	0.675	15.638	2.684	0.000
20.29	1.655	0.67130	0.675	15.638	2.685	0.000
20.3	1.656	0.67170	0.675	15.644	2.687	0.000
20.31	1.657	0.67200	0.676	15.652	2.688	0.000
20.32	1.657	0.67230	0.676	15.652	2.689	0.000
20.33	1.658	0.67270	0.676	15.666	2.691	0.000
20.34	1.660	0.67300	0.677	15.679	2.692	0.000
20.35	1.660	0.67330	0.677	15.687	2.693	0.000
20.359	1.660	0.67360	0.677	15.687	2.694	0.000
20.369	1.660	0.67400	0.678	15.687	2.696	0.000
20.379	1.663	0.67430	0.678	15.708	2.697	0.000
20.389	1.663	0.67460	0.678	15.708	2.698	0.000
20.399	1.663	0.67500	0.679	15.708	2.700	0.000
20.409	1.664	0.67530	0.679	15.722	2.701	0.000
20.419	1.663	0.67560	0.679	15.714	2.702	0.000
20.429	1.665	0.67600	0.680	15.728	2.704	0.000
20.44	1.667	0.67630	0.680	15.749	2.705	0.000
20.45	1.667	0.67670	0.680	15.749	2.707	0.000
20.46	1.666	0.67700	0.681	15.743	2.708	0.000
20.47	1.667	0.67730	0.681	15.749	2.709	0.000
20.48	1.668	0.67770	0.681	15.763	2.711	0.000
20.49	1.669	0.67800	0.682	15.771	2.712	0.000
20.5	1.669	0.67830	0.682	15.771	2.713	0.000
20.51	1.670	0.67870	0.682	15.778	2.715	0.000
20.52	1.671	0.67900	0.683	15.792	2.716	0.000
20.53	1.672	0.67930	0.683	15.798	2.717	0.000
20.54	1.672	0.67970	0.683	15.798	2.719	0.000
20.55	1.673	0.68000	0.684	15.806	2.720	0.000
20.56	1.674	0.68030	0.684	15.813	2.721	0.000
20.57	1.674	0.68070	0.684	15.819	2.723	0.000
20.58	1.676	0.68100	0.685	15.833	2.724	0.000
20.59	1.676	0.68130	0.685	15.833	2.725	0.000
20.6	1.676	0.68170	0.685	15.833	2.727	0.000
20.609	1.677	0.68200	0.686	15.848	2.728	0.000
20.619	1.679	0.68230	0.686	15.862	2.729	0.000
20.629	1.679	0.68260	0.686	15.868	2.730	0.000
20.639	1.680	0.68300	0.687	15.876	2.732	0.000
20.649	1.681	0.68330	0.687	15.882	2.733	0.000
20.659	1.680	0.68360	0.687	15.876	2.734	0.000
20.669	1.680	0.68400	0.688	15.876	2.736	0.000
20.679	1.683	0.68430	0.688	15.897	2.737	0.000
20.69	1.683	0.68470	0.688	15.903	2.739	0.000
20.7	1.683	0.68500	0.689	15.903	2.740	0.000
20.71	1.684	0.68540	0.689	15.911	2.742	0.000
20.72	1.685	0.68570	0.690	15.924	2.743	0.000
20.73	1.685	0.68600	0.690	15.924	2.744	0.000
20.74	1.686	0.68640	0.690	15.932	2.746	0.000
20.75	1.688	0.68670	0.690	15.946	2.747	0.000
20.76	1.688	0.68700	0.691	15.946	2.748	0.000
20.77	1.689	0.68740	0.691	15.959	2.750	0.000
20.78	1.690	0.68770	0.691	15.967	2.751	0.000
20.79	1.690	0.68800	0.692	15.967	2.752	0.000
20.8	1.690	0.68840	0.692	15.967	2.754	0.000
20.81	1.690	0.68870	0.692	15.967	2.755	0.000
20.82	1.691	0.68900	0.693	15.981	2.756	0.000
20.83	1.693	0.68940	0.693	15.994	2.758	0.000
20.84	1.693	0.68970	0.693	15.994	2.759	0.000
20.85	1.694	0.69000	0.694	16.008	2.760	0.000
20.859	1.694	0.69030	0.694	16.008	2.761	0.000
20.869	1.695	0.69070	0.694	16.016	2.763	0.000
20.879	1.697	0.69100	0.695	16.036	2.764	0.000
20.889	1.697	0.69130	0.695	16.036	2.765	0.000
20.899	1.696	0.69170	0.695	16.029	2.767	0.000
20.909	1.698	0.69200	0.696	16.043	2.768	0.000
20.919	1.699	0.69230	0.696	16.057	2.769	0.000
20.929	1.699	0.69260	0.697	16.051	2.770	0.000
20.94	1.700	0.69300	0.697	16.064	2.772	0.000
20.95	1.702	0.69330	0.697	16.078	2.773	0.000
20.96	1.702	0.69370	0.697	16.078	2.775	0.000
20.97	1.703	0.69400	0.698	16.092	2.776	0.000
20.98	1.704	0.69430	0.698	16.099	2.777	0.000
20.99	1.704	0.69470	0.698	16.099	2.779	0.000
21	1.705	0.69500	0.699	16.106	2.780	0.000
21.01	1.705	0.69530	0.699	16.106	2.781	0.000
21.02	1.705	0.69570	0.699	16.113	2.783	0.000
21.03	1.707	0.69600	0.700	16.127	2.784	0.000
21.04	1.708	0.69600	0.700	16.134	2.784	0.000
21.05	1.708	0.69630	0.700	16.141	2.785	0.000
21.06	1.708	0.69660	0.701	16.141	2.786	0.000
21.07	1.709	0.69700	0.701	16.148	2.788	0.000
21.08	1.711	0.69730	0.701	16.162	2.789	0.000
21.09	1.711	0.69760	0.702	16.169	2.790	0.000
21.1	1.712	0.69800	0.702	16.176	2.792	0.000
21.109	1.711	0.69830	0.702	16.169	2.793	0.000
21.119	1.713	0.69860	0.703	16.183	2.794	0.000
21.129	1.714	0.69900	0.703	16.197	2.796	0.000
21.139	1.714	0.69930	0.703	16.197	2.797	0.000
21.149	1.715	0.69960	0.704	16.205	2.798	0.000
21.159	1.715	0.70000	0.704	16.205	2.800	0.000
21.169	1.716	0.70030	0.704	16.211	2.801	0.000
21.179	1.717	0.70060	0.705	16.225	2.802	0.000
21.19	1.718	0.70100	0.705	16.232	2.804	0.000
21.2	1.718	0.70130	0.705	16.232	2.805	0.000
21.21	1.719	0.70170	0.706	16.246	2.807	0.000
21.22	1.719	0.70200	0.706	16.246	2.808	0.000
21.23	1.719	0.70230	0.706	16.240	2.809	0.000
21.24	1.721	0.70270	0.707	16.260	2.811	0.000
21.25	1.722	0.70300	0.707	16.275	2.812	0.000
21.26	1.722	0.70330	0.707	16.267	2.813	0.000
21.27	1.723	0.70370	0.708	16.281	2.815	0.000
21.28	1.725	0.70400	0.708	16.302	2.816	0.000
21.29	1.725	0.70430	0.708	16.295	2.817	0.000
21.3	1.725	0.70470	0.709	16.302	2.819	0.000
21.31	1.726	0.70500	0.709	16.310	2.820	0.000
21.32	1.726	0.70540	0.709	16.310	2.822	0.000
21.33	1.728	0.70570	0.710	16.323	2.823	0.000
21.34	1.728	0.70600	0.710	16.323	2.824	0.000
21.35	1.728	0.70640	0.710	16.323	2.826	0.000
21.359	1.729	0.70670	0.711	16.337	2.827	0.000
21.369	1.730	0.70700	0.711	16.344	2.828	0.000
21.379	1.731	0.70730	0.711	16.351	2.829	0.000
21.389	1.732	0.70770	0.712	16.365	2.831	0.000
21.399	1.732	0.70800	0.712	16.365	2.832	0.000
21.409	1.733	0.70830	0.712	16.372	2.833	0.000
21.419	1.734	0.70860	0.713	16.386	2.834	0.000
21.429	1.734	0.70900	0.713	16.386	2.836	0.000
21.44	1.735	0.70930	0.713	16.393	2.837	0.000
21.45	1.736	0.70970	0.714	16.400	2.839	0.000
21.46	1.737	0.71000	0.714	16.407	2.840	0.000
21.47	1.737	0.71030	0.714	16.414	2.841	0.000
21.48	1.738	0.71070	0.715	16.421	2.843	0.000
21.49	1.739	0.71100	0.715	16.428	2.844	0.000
21.5	1.739	0.71130	0.715	16.428	2.845	0.000
21.51	1.740	0.71170	0.716	16.435	2.847	0.000
21.52	1.741	0.71200	0.716	16.449	2.848	0.000
21.53	1.742	0.71230	0.716	16.463	2.849	0.000
21.54	1.743	0.71270	0.717	16.470	2.851	0.000
21.55	1.742	0.71300	0.717	16.463	2.852	0.000
21.56	1.742	0.71330	0.717	16.463	2.853	0.000
21.57	1.744	0.71370	0.718	16.477	2.855	0.000
21.58	1.745	0.71400	0.718	16.484	2.856	0.000
21.59	1.745	0.71430	0.718	16.484	2.857	0.000
21.6	1.746	0.71470	0.719	16.498	2.859	0.000
21.609	1.747	0.71500	0.719	16.505	2.860	0.000
21.619	1.747	0.71530	0.719	16.505	2.861	0.000
21.629	1.748	0.71560	0.720	16.519	2.862	0.000
21.639	1.749	0.71600	0.720	16.526	2.864	0.000
21.649	1.749	0.71630	0.720	16.526	2.865	0.000
21.659	1.751	0.71660	0.721	16.540	2.866	0.000
21.669	1.751	0.71700	0.721	16.547	2.868	0.000
21.679	1.751	0.71730	0.721	16.547	2.869	0.000
21.69	1.752	0.71770	0.722	16.554	2.871	0.000
21.7	1.753	0.71800	0.722	16.561	2.872	0.000
21.71	1.753	0.71830	0.722	16.567	2.873	0.000
21.72	1.754	0.71870	0.723	16.575	2.875	0.000
21.73	1.755	0.71900	0.723	16.582	2.876	0.000
21.74	1.756	0.71930	0.723	16.589	2.877	0.000
21.75	1.756	0.71970	0.724	16.589	2.879	0.000
21.76	1.757	0.72000	0.724	16.602	2.880	0.000
21.77	1.758	0.72030	0.724	16.610	2.881	0.000
21.78	1.758	0.72070	0.725	16.610	2.883	0.000
21.79	1.760	0.72100	0.725	16.624	2.884	0.000
21.8	1.760	0.72130	0.725	16.624	2.885	0.000
21.81	1.760	0.72170	0.726	16.631	2.887	0.000
21.82	1.762	0.72200	0.726	16.645	2.888	0.000
21.83	1.762	0.72230	0.726	16.652	2.889	0.000
21.84	1.762	0.72270	0.727	16.652	2.891	0.000
21.85	1.763	0.72300	0.727	16.659	2.892	0.000
21.859	1.764	0.72330	0.727	16.666	2.893	0.000
21.869	1.764	0.72360	0.728	16.666	2.894	0.000
21.879	1.765	0.72400	0.728	16.680	2.896	0.000
21.889	1.766	0.72430	0.728	16.687	2.897	0.000
21.899	1.766	0.72460	0.729	16.687	2.898	0.000
21.909	1.768	0.72500	0.729	16.701	2.900	0.000
21.919	1.768	0.72530	0.729	16.701	2.901	0.000
21.929	1.768	0.72560	0.730	16.707	2.902	0.000
21.94	1.770	0.72600	0.730	16.721	2.904	0.000
21.95	1.771	0.72630	0.730	16.729	2.905	0.000
21.96	1.771	0.72670	0.731	16.729	2.907	0.000
21.97	1.771	0.72700	0.731	16.736	2.908	0.000
21.98	1.773	0.72730	0.731	16.750	2.909	0.000
21.99	1.773	0.72770	0.732	16.756	2.911	0.000
22	1.774	0.72800	0.732	16.764	2.912	0.000
22.01	1.774	0.72830	0.732	16.764	2.913	0.000
22.02	1.775	0.72870	0.733	16.771	2.915	0.000
22.03	1.776	0.72900	0.733	16.777	2.916	0.000
22.04	1.776	0.72930	0.733	16.785	2.917	0.000
22.05	1.777	0.72970	0.734	16.791	2.919	0.000
22.06	1.777	0.73000	0.734	16.791	2.920	0.000
22.07	1.779	0.73030	0.734	16.806	2.921	0.000
22.08	1.779	0.73070	0.735	16.812	2.923	0.000
22.09	1.779	0.73100	0.735	16.806	2.924	0.000
22.1	1.780	0.73130	0.735	16.820	2.925	0.000
22.109	1.782	0.73160	0.736	16.834	2.926	0.000
22.119	1.782	0.73200	0.736	16.834	2.928	0.000
22.129	1.782	0.73230	0.736	16.841	2.929	0.000
22.139	1.783	0.73260	0.737	16.847	2.930	0.000
22.149	1.784	0.73300	0.737	16.855	2.932	0.000
22.159	1.785	0.73330	0.737	16.861	2.933	0.000
22.169	1.785	0.73360	0.738	16.869	2.934	0.000
22.179	1.786	0.73400	0.738	16.875	2.936	0.000
22.19	1.787	0.73430	0.738	16.883	2.937	0.000
22.2	1.788	0.73470	0.739	16.890	2.939	0.000
22.21	1.788	0.73500	0.739	16.890	2.940	0.000
22.22	1.789	0.73530	0.739	16.904	2.941	0.000
22.23	1.790	0.73570	0.740	16.910	2.943	0.000
22.24	1.791	0.73600	0.740	16.918	2.944	0.000
22.25	1.791	0.73630	0.740	16.925	2.945	0.000
22.26	1.791	0.73670	0.741	16.925	2.947	0.000
22.27	1.793	0.73700	0.741	16.939	2.948	0.000
22.28	1.793	0.73730	0.741	16.939	2.949	0.000
22.29	1.793	0.73770	0.742	16.945	2.951	0.000
22.3	1.795	0.73800	0.742	16.960	2.952	0.000
22.31	1.795	0.73830	0.742	16.960	2.953	0.000
22.32	1.795	0.73870	0.743	16.960	2.955	0.000
22.33	1.796	0.73900	0.743	16.974	2.956	0.000
22.34	1.797	0.73930	0.743	16.980	2.957	0.000
22.35	1.798	0.73970	0.744	16.988	2.959	0.000
22.359	1.799	0.74000	0.744	17.001	2.960	0.000
22.369	1.799	0.74030	0.744	17.001	2.961	0.000
22.379	1.800	0.74060	0.745	17.009	2.962	0.000
22.389	1.800	0.74100	0.745	17.009	2.964	0.000
22.399	1.801	0.74130	0.745	17.015	2.965	0.000
22.409	1.802	0.74160	0.746	17.023	2.966	0.000
22.419	1.803	0.74200	0.746	17.036	2.968	0.000
22.429	1.804	0.74230	0.746	17.044	2.969	0.000
22.44	1.802	0.74270	0.747	17.029	2.971	0.000
22.45	1.804	0.74300	0.747	17.044	2.972	0.000
22.46	1.805	0.74330	0.747	17.058	2.973	0.000
22.47	1.805	0.74370	0.748	17.058	2.975	0.000
22.48	1.806	0.74400	0.748	17.064	2.976	0.000
22.49	1.807	0.74430	0.748	17.071	2.977	0.000
22.5	1.808	0.74470	0.749	17.085	2.979	0.000
22.51	1.809	0.74500	0.749	17.093	2.980	0.000
22.52	1.809	0.74530	0.749	17.093	2.981	0.000
22.53	1.810	0.74570	0.750	17.099	2.983	0.000
22.54	1.811	0.74600	0.750	17.106	2.984	0.000
22.55	1.811	0.74630	0.750	17.114	2.985	0.000
22.56	1.812	0.74670	0.751	17.120	2.987	0.000
22.57	1.813	0.74700	0.751	17.128	2.988	0.000
22.58	1.814	0.74730	0.751	17.134	2.989	0.000
22.59	1.814	0.74770	0.752	17.141	2.991	0.000
22.6	1.815	0.74800	0.752	17.149	2.992	0.000
22.609	1.816	0.74830	0.752	17.163	2.993	0.000
22.619	1.816	0.74860	0.753	17.163	2.994	0.000
22.629	1.817	0.74900	0.753	17.169	2.996	0.000
22.639	1.818	0.74930	0.753	17.176	2.997	0.000
22.649	1.818	0.74960	0.754	17.176	2.998	0.000
22.659	1.819	0.75000	0.754	17.183	3.000	0.000
22.669	1.819	0.75030	0.754	17.190	3.001	0.000
22.679	1.820	0.75060	0.755	17.198	3.002	0.000
22.69	1.821	0.75100	0.755	17.204	3.004	0.000
22.7	1.822	0.75130	0.755	17.218	3.005	0.000
22.71	1.822	0.75170	0.756	17.218	3.007	0.000
22.72	1.823	0.75200	0.756	17.225	3.008	0.000
22.73	1.825	0.75230	0.756	17.239	3.009	0.000
22.74	1.825	0.75270	0.757	17.239	3.011	0.000
22.75	1.825	0.75300	0.757	17.246	3.012	0.000
22.76	1.826	0.75330	0.757	17.253	3.013	0.000
22.77	1.827	0.75370	0.758	17.260	3.015	0.000
22.78	1.828	0.75400	0.758	17.268	3.016	0.000
22.79	1.828	0.75430	0.758	17.268	3.017	0.000
22.8	1.829	0.75470	0.759	17.281	3.019	0.000
22.81	1.829	0.75500	0.759	17.281	3.020	0.000
22.82	1.829	0.75530	0.759	17.281	3.021	0.000
22.83	1.831	0.75570	0.760	17.303	3.023	0.000
22.84	1.832	0.75600	0.760	17.309	3.024	0.000
22.85	1.832	0.75630	0.760	17.309	3.025	0.000
22.859	1.833	0.75660	0.761	17.316	3.026	0.000
22.869	1.834	0.75700	0.761	17.330	3.028	0.000
22.879	1.834	0.75730	0.761	17.330	3.029	0.000
22.889	1.834	0.75760	0.762	17.330	3.030	0.000
22.899	1.835	0.75800	0.762	17.337	3.032	0.000
22.909	1.836	0.75830	0.762	17.344	3.033	0.000
22.919	1.837	0.75860	0.763	17.358	3.034	0.000
22.929	1.838	0.75900	0.763	17.365	3.036	0.000
22.94	1.839	0.75930	0.763	17.372	3.037	0.000
22.95	1.839	0.75970	0.764	17.379	3.039	0.000
22.96	1.839	0.76000	0.764	17.379	3.040	0.000
22.97	1.839	0.76030	0.764	17.379	3.041	0.000
22.98	1.841	0.76070	0.765	17.393	3.043	0.000
22.99	1.842	0.76100	0.765	17.407	3.044	0.000
23	1.842	0.76130	0.765	17.407	3.045	0.000
23.01	1.842	0.76170	0.766	17.407	3.047	0.000
23.02	1.843	0.76200	0.766	17.414	3.048	0.000
23.03	1.845	0.76230	0.766	17.428	3.049	0.000
23.04	1.845	0.76270	0.767	17.435	3.051	0.000
23.05	1.846	0.76300	0.767	17.442	3.052	0.000
23.06	1.846	0.76330	0.767	17.442	3.053	0.000
23.07	1.847	0.76370	0.768	17.449	3.055	0.000
23.08	1.848	0.76400	0.768	17.463	3.056	0.000
23.09	1.848	0.76430	0.769	17.463	3.057	0.000
23.1	1.849	0.76470	0.769	17.470	3.059	0.000
23.109	1.850	0.76500	0.769	17.477	3.060	0.000
23.119	1.851	0.76530	0.769	17.491	3.061	0.000
23.129	1.853	0.76560	0.770	17.505	3.062	0.000
23.139	1.852	0.76600	0.770	17.498	3.064	0.000
23.149	1.852	0.76630	0.770	17.498	3.065	0.000
23.159	1.854	0.76660	0.771	17.512	3.066	0.000
23.169	1.854	0.76700	0.771	17.519	3.068	0.000
23.179	1.855	0.76730	0.771	17.526	3.069	0.000
23.19	1.856	0.76770	0.772	17.540	3.071	0.000
23.2	1.856	0.76800	0.772	17.533	3.072	0.000
23.21	1.856	0.76830	0.772	17.540	3.073	0.000
23.22	1.859	0.76870	0.773	17.568	3.075	0.000
23.23	1.859	0.76900	0.773	17.561	3.076	0.000
23.24	1.859	0.76930	0.773	17.561	3.077	0.000
23.25	1.860	0.76970	0.774	17.575	3.079	0.000
23.26	1.861	0.77000	0.774	17.582	3.080	0.000
23.27	1.861	0.77030	0.774	17.582	3.081	0.000
23.28	1.862	0.77070	0.775	17.589	3.083	0.000
23.29	1.863	0.77100	0.775	17.603	3.084	0.000
23.3	1.862	0.77130	0.775	17.596	3.085	0.000
23.31	1.864	0.77170	0.776	17.610	3.087	0.000
23.32	1.865	0.77200	0.776	17.624	3.088	0.000
23.33	1.865	0.77230	0.776	17.617	3.089	0.000
23.34	1.866	0.77270	0.777	17.631	3.091	0.000
23.35	1.867	0.77300	0.777	17.638	3.092	0.000
23.359	1.867	0.77330	0.777	17.638	3.093	0.000
23.369	1.868	0.77360	0.778	17.652	3.094	0.000
23.379	1.869	0.77400	0.778	17.659	3.096	0.000
23.389	1.869	0.77430	0.778	17.659	3.097	0.000
23.399	1.870	0.77460	0.779	17.666	3.098	0.000
23.409	1.870	0.77500	0.779	17.673	3.100	0.000
23.419	1.872	0.77530	0.779	17.687	3.101	0.000
23.429	1.873	0.77560	0.780	17.694	3.102	0.000
23.44	1.873	0.77600	0.780	17.701	3.104	0.000
23.45	1.873	0.77630	0.780	17.701	3.105	0.000
23.46	1.873	0.77670	0.781	17.701	3.107	0.000
23.47	1.875	0.77700	0.781	17.714	3.108	0.000
23.48	1.875	0.77730	0.781	17.714	3.109	0.000
23.49	1.876	0.77770	0.782	17.722	3.111	0.000
23.5	1.876	0.77800	0.782	17.729	3.112	0.000
23.51	1.877	0.77830	0.782	17.736	3.113	0.000
23.52	1.879	0.77870	0.783	17.749	3.115	0.000
23.53	1.879	0.77900	0.783	17.757	3.116	0.000
23.54	1.879	0.77930	0.783	17.749	3.117	0.000
23.55	1.880	0.77970	0.784	17.764	3.119	0.000
23.56	1.882	0.78000	0.784	17.778	3.120	0.000
23.57	1.882	0.78030	0.784	17.778	3.121	0.000
23.58	1.882	0.78070	0.785	17.784	3.123	0.000
23.59	1.882	0.78100	0.785	17.784	3.124	0.000
23.6	1.884	0.78130	0.785	17.799	3.125	0.000
23.609	1.885	0.78160	0.786	17.806	3.126	0.000
23.619	1.885	0.78200	0.786	17.813	3.128	0.000
23.629	1.886	0.78230	0.786	17.819	3.129	0.000
23.639	1.886	0.78260	0.787	17.819	3.130	0.000
23.649	1.888	0.78300	0.787	17.841	3.132	0.000
23.659	1.888	0.78330	0.787	17.841	3.133	0.000
23.669	1.888	0.78360	0.788	17.834	3.134	0.000
23.679	1.890	0.78400	0.788	17.854	3.136	0.000
23.69	1.890	0.78430	0.788	17.854	3.137	0.000
23.7	1.890	0.78470	0.789	17.862	3.139	0.000
23.71	1.892	0.78500	0.789	17.876	3.140	0.000
23.72	1.891	0.78530	0.789	17.868	3.141	0.000
23.73	1.892	0.78570	0.790	17.876	3.143	0.000
23.74	1.893	0.78600	0.790	17.889	3.144	0.000
23.75	1.894	0.78630	0.790	17.897	3.145	0.000
23.76	1.894	0.78670	0.791	17.897	3.147	0.000
23.77	1.895	0.78700	0.791	17.903	3.148	0.000
23.78	1.896	0.78730	0.791	17.918	3.149	0.000
23.79	1.897	0.78770	0.792	17.924	3.151	0.000
23.8	1.897	0.78800	0.792	17.924	3.152	0.000
23.81	1.898	0.78830	0.792	17.932	3.153	0.000
23.82	1.899	0.78870	0.793	17.946	3.155	0.000
23.83	1.900	0.78900	0.793	17.953	3.156	0.000
23.84	1.900	0.78930	0.793	17.953	3.157	0.000
23.85	1.901	0.78970	0.794	17.959	3.159	0.000
23.859	1.901	0.79000	0.794	17.959	3.160	0.000
23.869	1.902	0.79030	0.794	17.967	3.161	0.000
23.879	1.903	0.79060	0.795	17.981	3.162	0.000
23.889	1.903	0.79100	0.795	17.981	3.164	0.000
23.899	1.903	0.79130	0.795	17.981	3.165	0.000
23.909	1.905	0.79160	0.796	18.002	3.166	0.000
23.919	1.906	0.79200	0.796	18.008	3.168	0.000
23.929	1.906	0.79230	0.796	18.008	3.169	0.000
23.94	1.908	0.79270	0.797	18.022	3.171	0.000
23.95	1.908	0.79300	0.797	18.029	3.172	0.000
23.96	1.908	0.79330	0.797	18.029	3.173	0.000
23.97	1.908	0.79370	0.798	18.029	3.175	0.000
23.98	1.910	0.79400	0.798	18.043	3.176	0.000
23.99	1.910	0.79430	0.798	18.043	3.177	0.000
24	1.911	0.79470	0.799	18.057	3.179	0.000
24.01	1.912	0.79500	0.799	18.064	3.180	0.000
24.02	1.911	0.79530	0.799	18.057	3.181	0.000
24.03	1.913	0.79570	0.800	18.072	3.183	0.000
24.04	1.914	0.79600	0.800	18.086	3.184	0.000
24.05	1.914	0.79630	0.800	18.086	3.185	0.000
24.06	1.915	0.79670	0.801	18.092	3.187	0.000
24.07	1.916	0.79700	0.801	18.099	3.188	0.000
24.08	1.916	0.79730	0.801	18.099	3.189	0.000
24.09	1.917	0.79770	0.802	18.113	3.191	0.000
24.1	1.918	0.79800	0.802	18.121	3.192	0.000
24.109	1.919	0.79830	0.802	18.127	3.193	0.000
24.119	1.919	0.79860	0.803	18.127	3.194	0.000
24.129	1.919	0.79900	0.803	18.127	3.196	0.000
24.139	1.920	0.79930	0.803	18.142	3.197	0.000
24.149	1.921	0.79960	0.804	18.148	3.198	0.000
24.159	1.922	0.80000	0.804	18.156	3.200	0.000
24.169	1.922	0.80030	0.804	18.162	3.201	0.000
24.179	1.924	0.80060	0.805	18.176	3.202	0.000
24.19	1.924	0.80100	0.805	18.176	3.204	0.000
24.2	1.924	0.80130	0.805	18.176	3.205	0.000
24.21	1.925	0.80170	0.806	18.191	3.207	0.000
24.22	1.926	0.80200	0.806	18.197	3.208	0.000
24.23	1.927	0.80230	0.806	18.204	3.209	0.000
24.24	1.928	0.80270	0.807	18.211	3.211	0.000
24.25	1.928	0.80300	0.807	18.218	3.212	0.000
24.26	1.929	0.80330	0.807	18.226	3.213	0.000
24.27	1.930	0.80370	0.808	18.232	3.215	0.000
24.28	1.930	0.80400	0.808	18.232	3.216	0.000
24.29	1.931	0.80430	0.808	18.240	3.217	0.000
24.3	1.931	0.80470	0.809	18.240	3.219	0.000
24.31	1.932	0.80500	0.809	18.253	3.220	0.000
24.32	1.933	0.80530	0.809	18.267	3.221	0.000
24.33	1.934	0.80570	0.810	18.275	3.223	0.000
24.34	1.935	0.80600	0.810	18.281	3.224	0.000
24.35	1.936	0.80630	0.810	18.288	3.225	0.000
24.359	1.936	0.80660	0.811	18.288	3.226	0.000
24.369	1.936	0.80700	0.811	18.296	3.228	0.000
24.379	1.937	0.80730	0.811	18.302	3.229	0.000
24.389	1.937	0.80760	0.812	18.302	3.230	0.000
24.399	1.939	0.80800	0.812	18.323	3.232	0.000
24.409	1.939	0.80830	0.812	18.323	3.233	0.000
24.419	1.940	0.80860	0.813	18.330	3.234	0.000
24.429	1.942	0.80900	0.813	18.345	3.236	0.000
24.44	1.940	0.80930	0.813	18.330	3.237	0.000
24.45	1.941	0.80970	0.814	18.337	3.239	0.000
24.46	1.944	0.81000	0.814	18.365	3.240	0.000
24.47	1.944	0.81030	0.814	18.365	3.241	0.000
24.48	1.944	0.81070	0.815	18.365	3.243	0.000
24.49	1.945	0.81100	0.815	18.380	3.244	0.000
24.5	1.946	0.81130	0.815	18.386	3.245	0.000
24.51	1.946	0.81170	0.816	18.386	3.247	0.000
24.52	1.947	0.81200	0.816	18.400	3.248	0.000
24.53	1.948	0.81230	0.816	18.407	3.249	0.000
24.54	1.949	0.81270	0.817	18.415	3.251	0.000
24.55	1.950	0.81300	0.817	18.421	3.252	0.000
24.56	1.950	0.81330	0.817	18.421	3.253	0.000
24.57	1.950	0.81370	0.818	18.428	3.255	0.000
24.58	1.951	0.81400	0.818	18.435	3.256	0.000
24.59	1.952	0.81430	0.818	18.442	3.257	0.000
24.6	1.953	0.81470	0.819	18.450	3.259	0.000
24.609	1.953	0.81500	0.819	18.456	3.260	0.000
24.619	1.953	0.81530	0.819	18.456	3.261	0.000
24.629	1.954	0.81560	0.820	18.463	3.262	0.000
24.639	1.955	0.81600	0.820	18.470	3.264	0.000
24.649	1.956	0.81630	0.820	18.477	3.265	0.000
24.659	1.957	0.81660	0.821	18.491	3.266	0.000
24.669	1.958	0.81700	0.821	18.498	3.268	0.000
24.679	1.958	0.81730	0.822	18.498	3.269	0.000
24.69	1.959	0.81770	0.822	18.505	3.271	0.000
24.7	1.959	0.81800	0.822	18.512	3.272	0.000
24.71	1.961	0.81830	0.822	18.526	3.273	0.000
24.72	1.962	0.81870	0.823	18.540	3.275	0.000
24.73	1.962	0.81900	0.823	18.533	3.276	0.000
24.74	1.962	0.81930	0.823	18.533	3.277	0.000
24.75	1.963	0.81970	0.824	18.547	3.279	0.000
24.76	1.964	0.82000	0.824	18.561	3.280	0.000
24.77	1.964	0.82030	0.824	18.554	3.281	0.000
24.78	1.964	0.82070	0.825	18.561	3.283	0.000
24.79	1.966	0.82100	0.825	18.575	3.284	0.000
24.8	1.966	0.82130	0.825	18.575	3.285	0.000
24.81	1.967	0.82170	0.826	18.589	3.287	0.000
24.82	1.968	0.82200	0.826	18.596	3.288	0.000
24.83	1.969	0.82230	0.826	18.603	3.289	0.000
24.84	1.970	0.82270	0.827	18.610	3.291	0.000
24.85	1.970	0.82300	0.827	18.610	3.292	0.000
24.859	1.970	0.82330	0.827	18.617	3.293	0.000
24.869	1.971	0.82360	0.828	18.624	3.294	0.000
24.879	1.972	0.82400	0.828	18.631	3.296	0.000
24.889	1.973	0.82430	0.828	18.645	3.297	0.000
24.899	1.974	0.82460	0.829	18.652	3.298	0.000
24.909	1.974	0.82500	0.829	18.652	3.300	0.000
24.919	1.975	0.82530	0.829	18.659	3.301	0.000
24.929	1.976	0.82560	0.830	18.673	3.302	0.000
24.94	1.976	0.82600	0.830	18.673	3.304	0.000
24.95	1.977	0.82630	0.830	18.680	3.305	0.000
24.96	1.978	0.82670	0.831	18.687	3.307	0.000
24.97	1.978	0.82700	0.831	18.687	3.308	0.000
24.98	1.979	0.82730	0.831	18.701	3.309	0.000
24.99	1.979	0.82770	0.832	18.701	3.311	0.000
25	1.980	0.82800	0.832	18.707	3.312	0.000
25.01	1.982	0.82830	0.832	18.722	3.313	0.000
25.02	1.982	0.82870	0.833	18.729	3.315	0.000
25.03	1.983	0.82900	0.833	18.736	3.316	0.000
25.04	1.984	0.82930	0.833	18.742	3.317	0.000
25.05	1.984	0.82970	0.834	18.742	3.319	0.000
25.06	1.984	0.83000	0.834	18.742	3.320	0.000
25.07	1.985	0.83030	0.834	18.757	3.321	0.000
25.08	1.986	0.83070	0.835	18.764	3.323	0.000
25.09	1.987	0.83100	0.835	18.771	3.324	0.000
25.1	1.987	0.83130	0.835	18.777	3.325	0.000
25.109	1.987	0.83160	0.836	18.777	3.326	0.000
25.119	1.989	0.83200	0.836	18.792	3.328	0.000
25.129	1.990	0.83230	0.836	18.799	3.329	0.000
25.139	1.990	0.83260	0.837	18.799	3.330	0.000
25.149	1.990	0.83300	0.837	18.806	3.332	0.000
25.159	1.991	0.83330	0.837	18.812	3.333	0.000
25.169	1.993	0.83360	0.838	18.834	3.334	0.000
25.179	1.993	0.83400	0.838	18.834	3.336	0.000
25.19	1.993	0.83440	0.839	18.834	3.338	0.000
25.2	1.994	0.83470	0.839	18.841	3.339	0.000
25.21	1.996	0.83500	0.839	18.855	3.340	0.000
25.22	1.996	0.83540	0.839	18.861	3.342	0.000
25.23	1.996	0.83570	0.840	18.855	3.343	0.000
25.24	1.998	0.83600	0.840	18.876	3.344	0.000
25.25	1.998	0.83590	0.840	18.876	3.344	0.000
25.26	1.999	0.83630	0.841	18.883	3.345	0.000
25.27	2.000	0.83660	0.841	18.896	3.346	0.000
25.28	2.000	0.83690	0.841	18.896	3.348	0.000
25.29	2.001	0.83730	0.842	18.904	3.349	0.000
25.3	2.001	0.83760	0.842	18.911	3.350	0.000
25.31	2.002	0.83800	0.842	18.918	3.352	0.000
25.32	2.003	0.83830	0.843	18.925	3.353	0.000
25.33	2.003	0.83860	0.843	18.925	3.354	0.000
25.34	2.003	0.83900	0.843	18.925	3.356	0.000
25.35	2.004	0.83930	0.844	18.939	3.357	0.000
25.359	2.006	0.83960	0.844	18.953	3.358	0.000
25.369	2.006	0.84000	0.844	18.953	3.360	0.000
25.379	2.006	0.84030	0.845	18.953	3.361	0.000
25.389	2.008	0.84060	0.845	18.974	3.362	0.000
25.399	2.009	0.84100	0.845	18.981	3.364	0.000
25.409	2.008	0.84130	0.846	18.974	3.365	0.000
25.419	2.010	0.84160	0.846	18.988	3.366	0.000
25.429	2.010	0.84200	0.846	18.995	3.368	0.000
25.44	2.011	0.84230	0.847	19.001	3.369	0.000
25.45	2.012	0.84270	0.847	19.009	3.371	0.000
25.46	2.011	0.84300	0.847	19.001	3.372	0.000
25.47	2.013	0.84330	0.848	19.015	3.373	0.000
25.48	2.015	0.84370	0.848	19.036	3.375	0.000
25.49	2.015	0.84400	0.848	19.036	3.376	0.000
25.5	2.014	0.84440	0.849	19.030	3.378	0.000
25.51	2.016	0.84470	0.849	19.044	3.379	0.000
25.52	2.016	0.84500	0.849	19.050	3.380	0.000
25.53	2.017	0.84540	0.850	19.058	3.382	0.000
25.54	2.018	0.84570	0.850	19.065	3.383	0.000
25.55	2.018	0.84600	0.850	19.065	3.384	0.000
25.56	2.019	0.84640	0.851	19.071	3.386	0.000
25.57	2.020	0.84670	0.851	19.085	3.387	0.000
25.58	2.021	0.84700	0.851	19.093	3.388	0.000
25.59	2.022	0.84740	0.852	19.100	3.390	0.000
25.6	2.022	0.84770	0.852	19.100	3.391	0.000
25.609	2.022	0.84800	0.852	19.106	3.392	0.000
25.619	2.024	0.84830	0.853	19.120	3.393	0.000
25.629	2.023	0.84870	0.853	19.114	3.395	0.000
25.639	2.024	0.84900	0.853	19.128	3.396	0.000
25.649	2.025	0.84930	0.854	19.135	3.397	0.000
25.659	2.025	0.84970	0.854	19.135	3.399	0.000
25.669	2.027	0.85000	0.854	19.149	3.400	0.000
25.679	2.027	0.85030	0.855	19.155	3.401	0.000
25.69	2.028	0.85070	0.855	19.163	3.403	0.000
25.7	2.029	0.85100	0.855	19.170	3.404	0.000
25.71	2.030	0.85130	0.856	19.176	3.405	0.000
25.72	2.030	0.85170	0.856	19.184	3.407	0.000
25.73	2.031	0.85200	0.856	19.190	3.408	0.000
25.74	2.032	0.85230	0.857	19.198	3.409	0.000
25.75	2.032	0.85270	0.857	19.198	3.411	0.000
25.76	2.032	0.85300	0.858	19.198	3.412	0.000
25.77	2.033	0.85330	0.858	19.211	3.413	0.000
25.78	2.035	0.85370	0.858	19.225	3.415	0.000
25.79	2.035	0.85400	0.858	19.225	3.416	0.000
25.8	2.036	0.85430	0.859	19.233	3.417	0.000
25.81	2.036	0.85470	0.859	19.239	3.419	0.000
25.82	2.036	0.85500	0.859	19.239	3.420	0.000
25.83	2.037	0.85530	0.860	19.246	3.421	0.000
25.84	2.038	0.85570	0.860	19.254	3.423	0.000
25.85	2.039	0.85600	0.860	19.260	3.424	0.000
25.859	2.039	0.85630	0.861	19.268	3.425	0.000
25.869	2.039	0.85660	0.861	19.268	3.426	0.000
25.879	2.042	0.85700	0.861	19.289	3.428	0.000
25.889	2.042	0.85730	0.862	19.295	3.429	0.000
25.899	2.042	0.85760	0.862	19.289	3.430	0.000
25.909	2.043	0.85800	0.862	19.303	3.432	0.000
25.919	2.044	0.85830	0.863	19.309	3.433	0.000
25.929	2.044	0.85860	0.863	19.316	3.434	0.000
25.94	2.045	0.85900	0.863	19.324	3.436	0.000
25.95	2.045	0.85930	0.864	19.324	3.437	0.000
25.96	2.046	0.85970	0.864	19.330	3.439	0.000
25.97	2.047	0.86000	0.864	19.338	3.440	0.000
25.98	2.048	0.86030	0.865	19.351	3.441	0.000
25.99	2.049	0.86070	0.865	19.358	3.443	0.000
26	2.048	0.86100	0.865	19.351	3.444	0.000
26.01	2.049	0.86130	0.866	19.358	3.445	0.000
26.02	2.050	0.86170	0.866	19.373	3.447	0.000
26.03	2.052	0.86200	0.866	19.386	3.448	0.000
26.04	2.052	0.86230	0.867	19.386	3.449	0.000
26.05	2.052	0.86270	0.867	19.386	3.451	0.000
26.06	2.053	0.86300	0.867	19.400	3.452	0.000
26.07	2.054	0.86330	0.868	19.408	3.453	0.000
26.08	2.054	0.86370	0.868	19.408	3.455	0.000
26.09	2.055	0.86400	0.868	19.414	3.456	0.000
26.1	2.056	0.86430	0.869	19.421	3.457	0.000
26.109	2.056	0.86460	0.869	19.428	3.458	0.000
26.119	2.058	0.86500	0.869	19.443	3.460	0.000
26.129	2.059	0.86530	0.870	19.449	3.461	0.000
26.139	2.059	0.86560	0.870	19.449	3.462	0.000
26.149	2.059	0.86600	0.870	19.449	3.464	0.000
26.159	2.059	0.86630	0.871	19.456	3.465	0.000
26.169	2.061	0.86660	0.871	19.470	3.466	0.000
26.179	2.062	0.86700	0.871	19.478	3.468	0.000
26.19	2.062	0.86730	0.872	19.478	3.469	0.000
26.2	2.062	0.86770	0.872	19.484	3.471	0.000
26.21	2.063	0.86800	0.872	19.491	3.472	0.000
26.22	2.064	0.86830	0.873	19.505	3.473	0.000
26.23	2.065	0.86870	0.873	19.512	3.475	0.000
26.24	2.064	0.86900	0.873	19.498	3.476	0.000
26.25	2.065	0.86930	0.874	19.512	3.477	0.000
26.26	2.067	0.86970	0.874	19.526	3.479	0.000
26.27	2.067	0.87000	0.874	19.533	3.480	0.000
26.28	2.069	0.87030	0.875	19.547	3.481	0.000
26.29	2.068	0.87070	0.875	19.540	3.483	0.000
26.3	2.069	0.87100	0.875	19.547	3.484	0.000
26.31	2.070	0.87130	0.876	19.554	3.485	0.000
26.32	2.070	0.87170	0.876	19.554	3.487	0.000
26.33	2.072	0.87200	0.876	19.575	3.488	0.000
26.34	2.073	0.87230	0.877	19.582	3.489	0.000
26.35	2.072	0.87270	0.877	19.575	3.491	0.000
26.359	2.073	0.87300	0.877	19.589	3.492	0.000
26.369	2.074	0.87330	0.878	19.597	3.493	0.000
26.379	2.075	0.87360	0.878	19.603	3.494	0.000
26.389	2.076	0.87400	0.878	19.610	3.496	0.000
26.399	2.076	0.87430	0.879	19.610	3.497	0.000
26.409	2.076	0.87460	0.879	19.610	3.498	0.000
26.419	2.077	0.87500	0.879	19.624	3.500	0.000
26.429	2.079	0.87530	0.880	19.645	3.501	0.000
26.44	2.079	0.87570	0.880	19.645	3.503	0.000
26.45	2.079	0.87600	0.880	19.638	3.504	0.000
26.46	2.079	0.87630	0.881	19.645	3.505	0.000
26.47	2.082	0.87670	0.881	19.666	3.507	0.000
26.48	2.082	0.87700	0.881	19.673	3.508	0.000
26.49	2.082	0.87730	0.882	19.673	3.509	0.000
26.5	2.082	0.87770	0.882	19.673	3.511	0.000
26.51	2.083	0.87800	0.882	19.680	3.512	0.000
26.52	2.084	0.87830	0.883	19.687	3.513	0.000
26.53	2.084	0.87870	0.883	19.694	3.515	0.000
26.54	2.085	0.87900	0.883	19.701	3.516	0.000
26.55	2.085	0.87930	0.884	19.701	3.517	0.000
26.56	2.086	0.87970	0.884	19.708	3.519	0.000
26.57	2.087	0.88000	0.884	19.722	3.520	0.000
26.58	2.088	0.88030	0.885	19.729	3.521	0.000
26.59	2.089	0.88070	0.885	19.736	3.523	0.000
26.6	2.090	0.88100	0.885	19.743	3.524	0.000
26.609	2.090	0.88130	0.886	19.743	3.525	0.000
26.619	2.090	0.88160	0.886	19.750	3.526	0.000
26.629	2.092	0.88200	0.886	19.764	3.528	0.000
26.639	2.092	0.88230	0.887	19.764	3.529	0.000
26.649	2.092	0.88260	0.887	19.764	3.530	0.000
26.659	2.093	0.88300	0.887	19.778	3.532	0.000
26.669	2.093	0.88330	0.888	19.778	3.533	0.000
26.679	2.095	0.88360	0.888	19.792	3.534	0.000
26.69	2.096	0.88400	0.888	19.806	3.536	0.000
26.7	2.095	0.88430	0.889	19.799	3.537	0.000
26.71	2.096	0.88470	0.889	19.806	3.539	0.000
26.72	2.097	0.88500	0.889	19.813	3.540	0.000
26.73	2.097	0.88530	0.890	19.813	3.541	0.000
26.74	2.098	0.88570	0.890	19.820	3.543	0.000
26.75	2.099	0.88600	0.890	19.834	3.544	0.000
26.76	2.100	0.88630	0.891	19.841	3.545	0.000
26.77	2.100	0.88670	0.891	19.841	3.547	0.000
26.78	2.101	0.88700	0.891	19.848	3.548	0.000
26.79	2.102	0.88730	0.892	19.862	3.549	0.000
26.8	2.102	0.88770	0.892	19.862	3.551	0.000
26.81	2.103	0.88800	0.892	19.869	3.552	0.000
26.82	2.104	0.88830	0.893	19.876	3.553	0.000
26.83	2.104	0.88870	0.893	19.883	3.555	0.000
26.84	2.105	0.88900	0.893	19.889	3.556	0.000
26.85	2.104	0.88930	0.894	19.883	3.557	0.000
26.859	2.106	0.88960	0.894	19.897	3.558	0.000
26.869	2.107	0.89000	0.894	19.911	3.560	0.000
26.879	2.107	0.89030	0.895	19.911	3.561	0.000
26.889	2.108	0.89060	0.895	19.918	3.562	0.000
26.899	2.109	0.89100	0.895	19.924	3.564	0.000
26.909	2.110	0.89130	0.896	19.932	3.565	0.000
26.919	2.110	0.89160	0.896	19.932	3.566	0.000
26.929	2.110	0.89200	0.896	19.939	3.568	0.000
26.94	2.112	0.89230	0.897	19.953	3.569	0.000
26.95	2.112	0.89270	0.897	19.959	3.571	0.000
26.96	2.113	0.89300	0.897	19.967	3.572	0.000
26.97	2.114	0.89330	0.898	19.974	3.573	0.000
26.98	2.113	0.89370	0.898	19.967	3.575	0.000
26.99	2.115	0.89400	0.898	19.981	3.576	0.000
27	2.116	0.89430	0.899	19.994	3.577	0.000
27.01	2.115	0.89470	0.899	19.988	3.579	0.000
27.02	2.115	0.89500	0.899	19.988	3.580	0.000
27.03	2.118	0.89530	0.900	20.009	3.581	0.000
27.04	2.118	0.89570	0.900	20.016	3.583	0.000
27.05	2.118	0.89600	0.900	20.016	3.584	0.000
27.06	2.121	0.89630	0.901	20.037	3.585	0.000
27.07	2.120	0.89670	0.901	20.029	3.587	0.000
27.08	2.121	0.89700	0.901	20.037	3.588	0.000
27.09	2.122	0.89730	0.902	20.051	3.589	0.000
27.1	2.122	0.89770	0.902	20.051	3.591	0.000
27.109	2.122	0.89800	0.902	20.051	3.592	0.000
27.119	2.124	0.89830	0.903	20.064	3.593	0.000
27.129	2.125	0.89860	0.903	20.078	3.594	0.000
27.139	2.125	0.89900	0.903	20.078	3.596	0.000
27.149	2.125	0.89930	0.904	20.078	3.597	0.000
27.159	2.126	0.89960	0.904	20.086	3.598	0.000
27.169	2.127	0.90000	0.904	20.093	3.600	0.000
27.179	2.127	0.90030	0.905	20.099	3.601	0.000
27.19	2.128	0.90070	0.905	20.107	3.603	0.000
27.2	2.129	0.90100	0.905	20.113	3.604	0.000
27.21	2.130	0.90130	0.906	20.121	3.605	0.000
27.22	2.130	0.90170	0.906	20.128	3.607	0.000
27.23	2.131	0.90200	0.906	20.134	3.608	0.000
27.24	2.132	0.90230	0.907	20.142	3.609	0.000
27.25	2.132	0.90270	0.907	20.148	3.611	0.000
27.26	2.133	0.90300	0.907	20.156	3.612	0.000
27.27	2.134	0.90330	0.908	20.163	3.613	0.000
27.28	2.134	0.90370	0.908	20.163	3.615	0.000
27.29	2.135	0.90400	0.908	20.169	3.616	0.000
27.3	2.135	0.90430	0.909	20.177	3.617	0.000
27.31	2.135	0.90470	0.909	20.177	3.619	0.000
27.32	2.136	0.90500	0.909	20.183	3.620	0.000
27.33	2.138	0.90530	0.910	20.197	3.621	0.000
27.34	2.138	0.90570	0.910	20.204	3.623	0.000
27.35	2.138	0.90600	0.910	20.204	3.624	0.000
27.359	2.139	0.90630	0.911	20.212	3.625	0.000
27.369	2.140	0.90660	0.911	20.218	3.626	0.000
27.379	2.141	0.90700	0.911	20.226	3.628	0.000
27.389	2.141	0.90730	0.912	20.232	3.629	0.000
27.399	2.142	0.90760	0.912	20.240	3.630	0.000
27.409	2.143	0.90800	0.912	20.247	3.632	0.000
27.419	2.143	0.90830	0.913	20.247	3.633	0.000
27.429	2.144	0.90860	0.913	20.253	3.634	0.000
27.44	2.144	0.90900	0.913	20.261	3.636	0.000
27.45	2.145	0.90930	0.914	20.267	3.637	0.000
27.46	2.146	0.90970	0.914	20.275	3.639	0.000
27.47	2.147	0.91000	0.914	20.282	3.640	0.000
27.48	2.147	0.91030	0.915	20.288	3.641	0.000
27.49	2.148	0.91070	0.915	20.296	3.643	0.000
27.5	2.150	0.91100	0.915	20.310	3.644	0.000
27.51	2.150	0.91130	0.916	20.310	3.645	0.000
27.52	2.150	0.91170	0.916	20.310	3.647	0.000
27.53	2.151	0.91200	0.916	20.323	3.648	0.000
27.54	2.152	0.91230	0.917	20.331	3.649	0.000
27.55	2.152	0.91270	0.917	20.331	3.651	0.000
27.56	2.152	0.91300	0.917	20.337	3.652	0.000
27.57	2.153	0.91330	0.918	20.345	3.653	0.000
27.58	2.155	0.91370	0.918	20.358	3.655	0.000
27.59	2.155	0.91400	0.918	20.366	3.656	0.000
27.6	2.155	0.91430	0.919	20.366	3.657	0.000
27.609	2.156	0.91460	0.919	20.372	3.658	0.000
27.619	2.156	0.91500	0.919	20.372	3.660	0.000
27.629	2.157	0.91530	0.920	20.380	3.661	0.000
27.639	2.158	0.91560	0.920	20.393	3.662	0.000
27.649	2.158	0.91600	0.920	20.393	3.664	0.000
27.659	2.158	0.91630	0.921	20.393	3.665	0.000
27.669	2.160	0.91660	0.921	20.407	3.666	0.000
27.679	2.161	0.91700	0.921	20.415	3.668	0.000
27.69	2.162	0.91730	0.922	20.428	3.669	0.000
27.7	2.162	0.91770	0.922	20.428	3.671	0.000
27.71	2.161	0.91800	0.922	20.421	3.672	0.000
27.72	2.164	0.91830	0.923	20.442	3.673	0.000
27.73	2.164	0.91870	0.923	20.442	3.675	0.000
27.74	2.164	0.91900	0.923	20.442	3.676	0.000
27.75	2.166	0.91930	0.924	20.463	3.677	0.000
27.76	2.167	0.91970	0.924	20.471	3.679	0.000
27.77	2.166	0.92000	0.924	20.463	3.680	0.000
27.78	2.167	0.92030	0.925	20.477	3.681	0.000
27.79	2.168	0.92070	0.925	20.485	3.683	0.000
27.8	2.168	0.92100	0.925	20.485	3.684	0.000
27.81	2.170	0.92130	0.926	20.498	3.685	0.000
27.82	2.170	0.92170	0.926	20.505	3.687	0.000
27.83	2.170	0.92200	0.926	20.505	3.688	0.000
27.84	2.170	0.92230	0.927	20.505	3.689	0.000
27.85	2.171	0.92270	0.927	20.512	3.691	0.000
27.859	2.172	0.92300	0.927	20.526	3.692	0.000
27.869	2.173	0.92330	0.928	20.533	3.693	0.000
27.879	2.173	0.92360	0.928	20.533	3.694	0.000
27.889	2.175	0.92400	0.929	20.547	3.696	0.000
27.899	2.175	0.92430	0.929	20.555	3.697	0.000
27.909	2.175	0.92460	0.929	20.555	3.698	0.000
27.919	2.175	0.92500	0.929	20.555	3.700	0.000
27.929	2.178	0.92530	0.930	20.575	3.701	0.000
27.94	2.178	0.92570	0.930	20.582	3.703	0.000
27.95	2.178	0.92600	0.930	20.575	3.704	0.000
27.96	2.178	0.92630	0.931	20.582	3.705	0.000
27.97	2.179	0.92670	0.931	20.590	3.707	0.000
27.98	2.181	0.92700	0.931	20.603	3.708	0.000
27.99	2.181	0.92730	0.932	20.610	3.709	0.000
28	2.181	0.92770	0.932	20.610	3.711	0.000
28.01	2.181	0.92800	0.932	20.610	3.712	0.000
28.02	2.183	0.92830	0.933	20.625	3.713	0.000
28.03	2.185	0.92870	0.933	20.645	3.715	0.000
28.04	2.184	0.92900	0.933	20.638	3.716	0.000
28.05	2.185	0.92930	0.934	20.645	3.717	0.000
28.06	2.187	0.92970	0.934	20.659	3.719	0.000
28.07	2.186	0.93000	0.934	20.652	3.720	0.000
28.08	2.187	0.93030	0.935	20.666	3.721	0.000
28.09	2.188	0.93070	0.935	20.673	3.723	0.000
28.1	2.187	0.93100	0.935	20.666	3.724	0.000
28.109	2.189	0.93130	0.936	20.680	3.725	0.000
28.119	2.190	0.93160	0.936	20.687	3.726	0.000
28.129	2.190	0.93200	0.936	20.694	3.728	0.000
28.139	2.192	0.93230	0.937	20.708	3.729	0.000
28.149	2.192	0.93260	0.937	20.708	3.730	0.000
28.159	2.193	0.93300	0.937	20.715	3.732	0.000
28.169	2.193	0.93330	0.938	20.722	3.733	0.000
28.179	2.193	0.93360	0.938	20.715	3.734	0.000
28.19	2.193	0.93400	0.938	20.722	3.736	0.000
28.2	2.195	0.93430	0.939	20.743	3.737	0.000
28.21	2.196	0.93470	0.939	20.750	3.739	0.000
28.22	2.196	0.93500	0.939	20.750	3.740	0.000
28.23	2.197	0.93530	0.940	20.757	3.741	0.000
28.24	2.198	0.93570	0.940	20.764	3.743	0.000
28.25	2.198	0.93600	0.940	20.764	3.744	0.000
28.26	2.198	0.93630	0.941	20.771	3.745	0.000
28.27	2.199	0.93670	0.941	20.778	3.747	0.000
28.28	2.200	0.93700	0.941	20.785	3.748	0.000
28.29	2.201	0.93730	0.942	20.792	3.749	0.000
28.3	2.201	0.93770	0.942	20.799	3.751	0.000
28.31	2.203	0.93800	0.942	20.813	3.752	0.000
28.32	2.203	0.93830	0.943	20.813	3.753	0.000
28.33	2.203	0.93870	0.943	20.813	3.755	0.000
28.34	2.204	0.93900	0.943	20.820	3.756	0.000
28.35	2.204	0.93930	0.944	20.820	3.757	0.000
28.359	2.205	0.93960	0.944	20.834	3.758	0.000
28.369	2.207	0.94000	0.944	20.848	3.760	0.000
28.379	2.206	0.94030	0.945	20.841	3.761	0.000
28.389	2.207	0.94060	0.945	20.855	3.762	0.000
28.399	2.208	0.94100	0.945	20.862	3.764	0.000
28.409	2.207	0.94130	0.946	20.855	3.765	0.000
28.419	2.209	0.94160	0.946	20.869	3.766	0.000
28.429	2.210	0.94200	0.946	20.882	3.768	0.000
28.44	2.210	0.94230	0.947	20.876	3.769	0.000
28.45	2.211	0.94270	0.947	20.890	3.771	0.000
28.46	2.213	0.94300	0.947	20.904	3.772	0.000
28.47	2.212	0.94330	0.948	20.897	3.773	0.000
28.48	2.213	0.94370	0.948	20.911	3.775	0.000
28.49	2.214	0.94400	0.948	20.918	3.776	0.000
28.5	2.215	0.94430	0.949	20.925	3.777	0.000
28.51	2.215	0.94470	0.949	20.932	3.779	0.000
28.52	2.215	0.94500	0.949	20.925	3.780	0.000
28.53	2.216	0.94530	0.950	20.939	3.781	0.000
28.54	2.218	0.94570	0.950	20.953	3.783	0.000
28.55	2.218	0.94600	0.950	20.953	3.784	0.000
28.56	2.218	0.94630	0.951	20.960	3.785	0.000
28.57	2.218	0.94670	0.951	20.960	3.787	0.000
28.58	2.219	0.94700	0.951	20.967	3.788	0.000
28.59	2.220	0.94730	0.952	20.974	3.789	0.000
28.6	2.221	0.94770	0.952	20.981	3.791	0.000
28.609	2.221	0.94800	0.952	20.988	3.792	0.000
28.619	2.222	0.94830	0.953	20.995	3.793	0.000
28.629	2.223	0.94860	0.953	21.002	3.794	0.000
28.639	2.224	0.94900	0.953	21.009	3.796	0.000
28.649	2.224	0.94930	0.954	21.016	3.797	0.000
28.659	2.224	0.94960	0.954	21.016	3.798	0.000
28.669	2.225	0.95000	0.954	21.023	3.800	0.000
28.679	2.227	0.95030	0.955	21.036	3.801	0.000
28.69	2.227	0.95070	0.955	21.044	3.803	0.000
28.7	2.227	0.95100	0.955	21.044	3.804	0.000
28.71	2.227	0.95130	0.956	21.044	3.805	0.000
28.72	2.229	0.95170	0.956	21.058	3.807	0.000
28.73	2.230	0.95200	0.956	21.071	3.808	0.000
28.74	2.230	0.95230	0.957	21.071	3.809	0.000
28.75	2.230	0.95270	0.957	21.071	3.811	0.000
28.76	2.232	0.95300	0.957	21.086	3.812	0.000
28.77	2.233	0.95330	0.958	21.093	3.813	0.000
28.78	2.233	0.95370	0.958	21.093	3.815	0.000
28.79	2.233	0.95400	0.958	21.100	3.816	0.000
28.8	2.234	0.95430	0.959	21.106	3.817	0.000
28.81	2.235	0.95470	0.959	21.114	3.819	0.000
28.82	2.235	0.95500	0.959	21.114	3.820	0.000
28.83	2.235	0.95530	0.960	21.121	3.821	0.000
28.84	2.236	0.95570	0.960	21.128	3.823	0.000
28.85	2.238	0.95600	0.960	21.141	3.824	0.000
28.859	2.238	0.95630	0.961	21.141	3.825	0.000
28.869	2.238	0.95660	0.961	21.149	3.826	0.000
28.879	2.240	0.95700	0.961	21.163	3.828	0.000
28.889	2.239	0.95730	0.962	21.156	3.829	0.000
28.899	2.240	0.95760	0.962	21.163	3.830	0.000
28.909	2.241	0.95800	0.962	21.170	3.832	0.000
28.919	2.241	0.95830	0.963	21.176	3.833	0.000
28.929	2.242	0.95860	0.963	21.184	3.834	0.000
28.94	2.243	0.95900	0.963	21.190	3.836	0.000
28.95	2.243	0.95930	0.964	21.190	3.837	0.000
28.96	2.243	0.95970	0.964	21.190	3.839	0.000
28.97	2.244	0.96000	0.965	21.205	3.840	0.000
28.98	2.246	0.96030	0.965	21.219	3.841	0.000
28.99	2.246	0.96070	0.965	21.219	3.843	0.000
29	2.247	0.96100	0.965	21.225	3.844	0.000
29.01	2.247	0.96130	0.966	21.233	3.845	0.000
29.02	2.247	0.96170	0.966	21.233	3.847	0.000
29.03	2.248	0.96200	0.966	21.240	3.848	0.000
29.04	2.249	0.96230	0.967	21.246	3.849	0.000
29.05	2.250	0.96270	0.967	21.254	3.851	0.000
29.06	2.250	0.96300	0.967	21.260	3.852	0.000
29.07	2.252	0.96330	0.968	21.275	3.853	0.000
29.08	2.252	0.96370	0.968	21.275	3.855	0.000
29.09	2.252	0.96400	0.968	21.275	3.856	0.000
29.1	2.252	0.96430	0.969	21.281	3.857	0.000
29.109	2.253	0.96460	0.969	21.289	3.858	0.000
29.119	2.255	0.96500	0.969	21.303	3.860	0.000
29.129	2.255	0.96530	0.970	21.310	3.861	0.000
29.139	2.255	0.96560	0.970	21.310	3.862	0.000
29.149	2.255	0.96600	0.970	21.310	3.864	0.000
29.159	2.257	0.96630	0.971	21.324	3.865	0.000
29.169	2.257	0.96660	0.971	21.324	3.866	0.000
29.179	2.258	0.96700	0.971	21.330	3.868	0.000
29.19	2.259	0.96730	0.972	21.344	3.869	0.000
29.2	2.259	0.96770	0.972	21.344	3.871	0.000
29.21	2.260	0.96800	0.972	21.351	3.872	0.000
29.22	2.261	0.96830	0.973	21.365	3.873	0.000
29.23	2.261	0.96870	0.973	21.365	3.875	0.000
29.24	2.261	0.96900	0.973	21.365	3.876	0.000
29.25	2.262	0.96930	0.974	21.373	3.877	0.000
29.26	2.263	0.96970	0.974	21.379	3.879	0.000
29.27	2.264	0.97000	0.974	21.394	3.880	0.000
29.28	2.265	0.97030	0.975	21.400	3.881	0.000
29.29	2.265	0.97070	0.975	21.400	3.883	0.000
29.3	2.264	0.97100	0.975	21.394	3.884	0.000
29.31	2.266	0.97130	0.976	21.414	3.885	0.000
29.32	2.267	0.97170	0.976	21.421	3.887	0.000
29.33	2.267	0.97200	0.976	21.421	3.888	0.000
29.34	2.268	0.97230	0.977	21.429	3.889	0.000
29.35	2.269	0.97270	0.977	21.435	3.891	0.000
29.359	2.270	0.97300	0.977	21.443	3.892	0.000
29.369	2.270	0.97330	0.978	21.449	3.893	0.000
29.379	2.271	0.97360	0.978	21.456	3.894	0.000
29.389	2.271	0.97400	0.979	21.456	3.896	0.000
29.399	2.272	0.97430	0.979	21.464	3.897	0.000
29.409	2.272	0.97470	0.979	21.470	3.899	0.000
29.419	2.274	0.97500	0.979	21.484	3.900	0.000
29.429	2.275	0.97530	0.980	21.491	3.901	0.000
29.44	2.274	0.97570	0.980	21.484	3.903	0.000
29.45	2.275	0.97600	0.980	21.491	3.904	0.000
29.46	2.276	0.97610	0.981	21.505	3.904	0.000
29.47	2.276	0.97640	0.981	21.505	3.906	0.000
29.48	2.278	0.97680	0.981	21.519	3.907	0.000
29.49	2.278	0.97710	0.982	21.519	3.908	0.000
29.5	2.278	0.97740	0.982	21.519	3.910	0.000
29.51	2.279	0.97770	0.982	21.533	3.911	0.000
29.52	2.280	0.97810	0.983	21.540	3.912	0.000
29.53	2.281	0.97840	0.983	21.548	3.914	0.000
29.54	2.281	0.97870	0.983	21.554	3.915	0.000
29.55	2.282	0.97900	0.984	21.562	3.916	0.000
29.56	2.281	0.97940	0.984	21.554	3.918	0.000
29.57	2.283	0.97970	0.984	21.568	3.919	0.000
29.58	2.284	0.98000	0.985	21.583	3.920	0.000
29.59	2.284	0.98040	0.985	21.583	3.922	0.000
29.6	2.284	0.98070	0.985	21.583	3.923	0.000
29.609	2.285	0.98100	0.986	21.589	3.924	0.000
29.619	2.286	0.98130	0.986	21.603	3.925	0.000
29.629	2.286	0.98170	0.986	21.603	3.927	0.000
29.639	2.286	0.98200	0.987	21.603	3.928	0.000
29.649	2.287	0.98230	0.987	21.610	3.929	0.000
29.659	2.289	0.98260	0.987	21.624	3.930	0.000
29.669	2.289	0.98300	0.988	21.632	3.932	0.000
29.679	2.289	0.98330	0.988	21.632	3.933	0.000
29.69	2.289	0.98370	0.988	21.632	3.935	0.000
29.7	2.290	0.98400	0.989	21.638	3.936	0.000
29.71	2.291	0.98430	0.989	21.645	3.937	0.000
29.72	2.292	0.98470	0.989	21.652	3.939	0.000
29.73	2.293	0.98500	0.990	21.667	3.940	0.000
29.74	2.294	0.98530	0.990	21.673	3.941	0.000
29.75	2.295	0.98570	0.990	21.680	3.943	0.000
29.76	2.294	0.98600	0.991	21.673	3.944	0.000
29.77	2.294	0.98630	0.991	21.673	3.945	0.000
29.78	2.297	0.98670	0.991	21.702	3.947	0.000
29.79	2.297	0.98700	0.992	21.702	3.948	0.000
29.8	2.297	0.98730	0.992	21.702	3.949	0.000
29.81	2.298	0.98770	0.992	21.715	3.951	0.000
29.82	2.298	0.98800	0.993	21.715	3.952	0.000
29.83	2.299	0.98830	0.993	21.722	3.953	0.000
29.84	2.300	0.98870	0.993	21.729	3.955	0.000
29.85	2.300	0.98900	0.994	21.729	3.956	0.000
29.859	2.301	0.98930	0.994	21.737	3.957	0.000
29.869	2.301	0.98960	0.994	21.743	3.958	0.000
29.879	2.301	0.99000	0.995	21.743	3.960	0.000
29.889	2.303	0.99030	0.995	21.757	3.961	0.000
29.899	2.304	0.99060	0.995	21.772	3.962	0.000
29.909	2.304	0.99100	0.996	21.772	3.964	0.000
29.919	2.303	0.99130	0.996	21.764	3.965	0.000
29.929	2.304	0.99160	0.996	21.772	3.966	0.000
29.94	2.306	0.99200	0.997	21.785	3.968	0.000
29.95	2.306	0.99230	0.997	21.792	3.969	0.000
29.96	2.308	0.99270	0.997	21.807	3.971	0.000
29.97	2.308	0.99300	0.998	21.807	3.972	0.000
29.98	2.308	0.99330	0.998	21.807	3.973	0.000
29.99	2.309	0.99370	0.998	21.813	3.975	0.000
30	2.309	0.99400	0.999	21.813	3.976	0.000
30.01	2.310	0.99430	0.999	21.827	3.977	0.000
30.02	2.311	0.99470	0.999	21.834	3.979	0.000
30.03	2.311	0.99500	1.000	21.834	3.980	0.000
30.04	2.312	0.99530	1.000	21.841	3.981	0.000
30.05	2.313	0.99570	1.000	21.855	3.983	0.000
30.06	2.314	0.99600	1.001	21.862	3.984	0.000
30.07	2.314	0.99630	1.001	21.862	3.985	0.000
30.08	2.315	0.99670	1.001	21.869	3.987	0.000
30.09	2.315	0.99700	1.002	21.869	3.988	0.000
30.1	2.315	0.99730	1.002	21.876	3.989	0.000
30.109	2.316	0.99760	1.002	21.883	3.990	0.000
30.119	2.317	0.99800	1.003	21.890	3.992	0.000
30.129	2.318	0.99830	1.003	21.897	3.993	0.000
30.139	2.318	0.99860	1.003	21.897	3.994	0.000
30.149	2.318	0.99900	1.004	21.904	3.996	0.000
30.159	2.319	0.99930	1.004	21.911	3.997	0.000
30.169	2.320	0.99960	1.004	21.918	3.998	0.000
30.179	2.321	1.00000	1.005	21.932	4.000	0.000
30.19	2.321	1.00030	1.005	21.932	4.001	0.000
30.2	2.321	1.00070	1.005	21.932	4.003	0.000
30.21	2.323	1.00100	1.006	21.946	4.004	0.000
30.22	2.323	1.00130	1.006	21.953	4.005	0.000
30.23	2.323	1.00170	1.006	21.953	4.007	0.000
30.24	2.323	1.00200	1.007	21.953	4.008	0.000
30.25	2.325	1.00230	1.007	21.967	4.009	0.000
30.26	2.326	1.00270	1.007	21.981	4.011	0.000
30.27	2.326	1.00300	1.008	21.974	4.012	0.000
30.28	2.326	1.00330	1.008	21.981	4.013	0.000
30.29	2.328	1.00370	1.008	21.995	4.015	0.000
30.3	2.327	1.00400	1.009	21.988	4.016	0.000
30.31	2.328	1.00430	1.009	21.995	4.017	0.000
30.32	2.329	1.00470	1.009	22.009	4.019	0.000
30.33	2.330	1.00500	1.010	22.016	4.020	0.000
30.34	2.330	1.00530	1.010	22.016	4.021	0.000
30.35	2.330	1.00570	1.010	22.016	4.023	0.000
30.359	2.331	1.00600	1.011	22.023	4.024	0.000
30.369	2.332	1.00630	1.011	22.037	4.025	0.000
30.379	2.333	1.00660	1.011	22.044	4.026	0.000
30.389	2.333	1.00700	1.012	22.044	4.028	0.000
30.399	2.333	1.00730	1.012	22.044	4.029	0.000
30.409	2.335	1.00760	1.012	22.058	4.030	0.000
30.419	2.336	1.00800	1.013	22.072	4.032	0.000
30.429	2.335	1.00830	1.013	22.064	4.033	0.000
30.44	2.335	1.00870	1.013	22.064	4.035	0.000
30.45	2.336	1.00900	1.014	22.072	4.036	0.000
30.46	2.338	1.00930	1.014	22.093	4.037	0.000
30.47	2.339	1.00970	1.014	22.099	4.039	0.000
30.48	2.338	1.01000	1.015	22.093	4.040	0.000
30.49	2.339	1.01030	1.015	22.099	4.041	0.000
30.5	2.341	1.01070	1.015	22.114	4.043	0.000
30.51	2.341	1.01100	1.016	22.114	4.044	0.000
30.52	2.341	1.01130	1.016	22.121	4.045	0.000
30.53	2.343	1.01170	1.016	22.134	4.047	0.000
30.54	2.343	1.01200	1.017	22.142	4.048	0.000
30.55	2.343	1.01230	1.017	22.142	4.049	0.000
30.56	2.343	1.01270	1.018	22.142	4.051	0.000
30.57	2.344	1.01300	1.018	22.149	4.052	0.000
30.58	2.345	1.01330	1.018	22.156	4.053	0.000
30.59	2.346	1.01370	1.018	22.163	4.055	0.000
30.6	2.346	1.01400	1.019	22.169	4.056	0.000
30.609	2.347	1.01430	1.019	22.177	4.057	0.000
30.619	2.347	1.01460	1.019	22.177	4.058	0.000
30.629	2.348	1.01500	1.020	22.183	4.060	0.000
30.639	2.349	1.01530	1.020	22.191	4.061	0.000
30.649	2.349	1.01560	1.020	22.198	4.062	0.000
30.659	2.350	1.01600	1.021	22.204	4.064	0.000
30.669	2.350	1.01630	1.021	22.204	4.065	0.000
30.679	2.351	1.01660	1.021	22.212	4.066	0.000
30.69	2.352	1.01700	1.022	22.218	4.068	0.000
30.7	2.352	1.01730	1.022	22.226	4.069	0.000
30.71	2.353	1.01770	1.022	22.233	4.071	0.000
30.72	2.354	1.01800	1.023	22.240	4.072	0.000
30.73	2.354	1.01830	1.023	22.240	4.073	0.000
30.74	2.355	1.01870	1.023	22.247	4.075	0.000
30.75	2.356	1.01900	1.024	22.261	4.076	0.000
30.76	2.357	1.01930	1.024	22.268	4.077	0.000
30.77	2.357	1.01970	1.024	22.268	4.079	0.000
30.78	2.357	1.02000	1.025	22.268	4.080	0.000
30.79	2.358	1.02030	1.025	22.275	4.081	0.000
30.8	2.358	1.02070	1.025	22.282	4.083	0.000
30.81	2.359	1.02100	1.026	22.288	4.084	0.000
30.82	2.360	1.02130	1.026	22.296	4.085	0.000
30.83	2.360	1.02170	1.026	22.296	4.087	0.000
30.84	2.361	1.02200	1.027	22.303	4.088	0.000
30.85	2.362	1.02230	1.027	22.317	4.089	0.000
30.859	2.362	1.02260	1.027	22.317	4.090	0.000
30.869	2.363	1.02300	1.028	22.323	4.092	0.000
30.879	2.364	1.02330	1.028	22.331	4.093	0.000
30.889	2.364	1.02360	1.028	22.331	4.094	0.000
30.899	2.365	1.02400	1.029	22.345	4.096	0.000
30.909	2.365	1.02430	1.029	22.345	4.097	0.000
30.919	2.365	1.02460	1.029	22.345	4.098	0.000
30.929	2.366	1.02500	1.030	22.358	4.100	0.000
30.94	2.366	1.02530	1.030	22.358	4.101	0.000
30.95	2.367	1.02570	1.030	22.366	4.103	0.000
30.96	2.369	1.02600	1.031	22.380	4.104	0.000
30.97	2.369	1.02630	1.031	22.380	4.105	0.000
30.98	2.370	1.02670	1.031	22.393	4.107	0.000
30.99	2.371	1.02700	1.032	22.401	4.108	0.000
31	2.370	1.02730	1.032	22.393	4.109	0.000
31.01	2.372	1.02770	1.032	22.407	4.111	0.000
31.02	2.372	1.02800	1.033	22.415	4.112	0.000
31.03	2.372	1.02830	1.033	22.415	4.113	0.000
31.04	2.373	1.02870	1.033	22.422	4.115	0.000
31.05	2.374	1.02900	1.034	22.428	4.116	0.000
31.06	2.374	1.02930	1.034	22.428	4.117	0.000
31.07	2.375	1.02970	1.034	22.442	4.119	0.000
31.08	2.377	1.03000	1.035	22.457	4.120	0.000
31.09	2.377	1.03030	1.035	22.457	4.121	0.000
31.1	2.377	1.03070	1.035	22.457	4.123	0.000
31.109	2.377	1.03100	1.036	22.457	4.124	0.000
31.119	2.377	1.03130	1.036	22.457	4.125	0.000
31.129	2.379	1.03160	1.036	22.477	4.126	0.000
31.139	2.380	1.03200	1.037	22.485	4.128	0.000
31.149	2.380	1.03230	1.037	22.485	4.129	0.000
31.159	2.381	1.03260	1.037	22.491	4.130	0.000
31.169	2.380	1.03300	1.038	22.485	4.132	0.000
31.179	2.381	1.03330	1.038	22.498	4.133	0.000
31.19	2.383	1.03370	1.038	22.512	4.135	0.000
31.2	2.383	1.03400	1.039	22.512	4.136	0.000
31.21	2.384	1.03430	1.039	22.520	4.137	0.000
31.22	2.384	1.03470	1.039	22.526	4.139	0.000
31.23	2.384	1.03500	1.040	22.526	4.140	0.000
31.24	2.384	1.03530	1.040	22.526	4.141	0.000
31.25	2.386	1.03570	1.040	22.541	4.143	0.000
31.26	2.387	1.03600	1.041	22.555	4.144	0.000
31.27	2.387	1.03630	1.041	22.555	4.145	0.000
31.28	2.387	1.03670	1.041	22.555	4.147	0.000
31.29	2.388	1.03700	1.042	22.561	4.148	0.000
31.3	2.389	1.03730	1.042	22.576	4.149	0.000
31.31	2.389	1.03770	1.042	22.576	4.151	0.000
31.32	2.389	1.03800	1.043	22.576	4.152	0.000
31.33	2.390	1.03830	1.043	22.582	4.153	0.000
31.34	2.392	1.03870	1.043	22.596	4.155	0.000
31.35	2.392	1.03900	1.044	22.603	4.156	0.000
31.359	2.392	1.03930	1.044	22.596	4.157	0.000
31.369	2.392	1.03960	1.044	22.603	4.158	0.000
31.379	2.394	1.04000	1.045	22.617	4.160	0.000
31.389	2.394	1.04030	1.045	22.617	4.161	0.000
31.399	2.395	1.04060	1.045	22.625	4.162	0.000
31.409	2.395	1.04100	1.046	22.631	4.164	0.000
31.419	2.395	1.04130	1.046	22.625	4.165	0.000
31.429	2.396	1.04160	1.046	22.638	4.166	0.000
31.44	2.398	1.04200	1.047	22.652	4.168	0.000
31.45	2.398	1.04230	1.047	22.652	4.169	0.000
31.46	2.398	1.04270	1.047	22.660	4.171	0.000
31.47	2.399	1.04300	1.048	22.666	4.172	0.000
31.48	2.399	1.04330	1.048	22.666	4.173	0.000
31.49	2.399	1.04370	1.048	22.666	4.175	0.000
31.5	2.400	1.04400	1.049	22.673	4.176	0.000
31.51	2.401	1.04430	1.049	22.687	4.177	0.000
31.52	2.401	1.04470	1.049	22.687	4.179	0.000
31.53	2.402	1.04500	1.050	22.695	4.180	0.000
31.54	2.403	1.04530	1.050	22.708	4.181	0.000
31.55	2.403	1.04570	1.050	22.701	4.183	0.000
31.56	2.403	1.04600	1.051	22.708	4.184	0.000
31.57	2.404	1.04630	1.051	22.715	4.185	0.000
31.58	2.405	1.04670	1.051	22.722	4.187	0.000
31.59	2.407	1.04700	1.052	22.743	4.188	0.000
31.6	2.406	1.04730	1.052	22.736	4.189	0.000
31.609	2.406	1.04760	1.052	22.730	4.190	0.000
31.619	2.408	1.04800	1.053	22.750	4.192	0.000
31.629	2.409	1.04830	1.053	22.757	4.193	0.000
31.639	2.408	1.04860	1.053	22.750	4.194	0.000
31.649	2.409	1.04900	1.054	22.757	4.196	0.000
31.659	2.411	1.04930	1.054	22.778	4.197	0.000
31.669	2.411	1.04960	1.054	22.778	4.198	0.000
31.679	2.411	1.05000	1.055	22.778	4.200	0.000
31.69	2.412	1.05030	1.055	22.792	4.201	0.000
31.7	2.412	1.05070	1.055	22.792	4.203	0.000
31.71	2.412	1.05100	1.056	22.792	4.204	0.000
31.72	2.412	1.05130	1.056	22.792	4.205	0.000
31.73	2.414	1.05170	1.056	22.813	4.207	0.000
31.74	2.415	1.05200	1.057	22.820	4.208	0.000
31.75	2.415	1.05230	1.057	22.820	4.209	0.000
31.76	2.416	1.05270	1.057	22.827	4.211	0.000
31.77	2.416	1.05300	1.058	22.827	4.212	0.000
31.78	2.417	1.05330	1.058	22.834	4.213	0.000
31.79	2.418	1.05370	1.058	22.841	4.215	0.000
31.8	2.419	1.05400	1.059	22.855	4.216	0.000
31.81	2.419	1.05430	1.059	22.855	4.217	0.000
31.82	2.418	1.05470	1.059	22.848	4.219	0.000
31.83	2.420	1.05500	1.060	22.862	4.220	0.000
31.84	2.421	1.05530	1.060	22.876	4.221	0.000
31.85	2.422	1.05570	1.060	22.883	4.223	0.000
31.859	2.422	1.05600	1.061	22.883	4.224	0.000
31.869	2.422	1.05630	1.061	22.883	4.225	0.000
31.879	2.422	1.05660	1.061	22.883	4.226	0.000
31.889	2.423	1.05700	1.062	22.890	4.228	0.000
31.899	2.425	1.05730	1.062	22.911	4.229	0.000
31.909	2.426	1.05760	1.062	22.919	4.230	0.000
31.919	2.426	1.05800	1.063	22.919	4.232	0.000
31.929	2.426	1.05830	1.063	22.925	4.233	0.000
31.94	2.426	1.05870	1.063	22.925	4.235	0.000
31.95	2.426	1.05900	1.064	22.925	4.236	0.000
31.96	2.428	1.05930	1.064	22.939	4.237	0.000
31.97	2.428	1.05970	1.064	22.939	4.239	0.000
31.98	2.429	1.06000	1.065	22.946	4.240	0.000
31.99	2.430	1.06030	1.065	22.960	4.241	0.000
32	2.429	1.06070	1.065	22.954	4.243	0.000
32.01	2.430	1.06100	1.066	22.960	4.244	0.000
32.02	2.431	1.06130	1.066	22.967	4.245	0.000
32.03	2.432	1.06170	1.066	22.974	4.247	0.000
32.04	2.433	1.06200	1.067	22.988	4.248	0.000
32.05	2.433	1.06230	1.067	22.988	4.249	0.000
32.06	2.433	1.06270	1.067	22.988	4.251	0.000
32.07	2.434	1.06300	1.068	23.002	4.252	0.000
32.08	2.435	1.06330	1.068	23.009	4.253	0.000
32.09	2.434	1.06370	1.068	23.002	4.255	0.000
32.1	2.436	1.06400	1.069	23.016	4.256	0.000
32.109	2.437	1.06430	1.069	23.023	4.257	0.000
32.119	2.438	1.06460	1.069	23.030	4.258	0.000
32.129	2.438	1.06500	1.070	23.037	4.260	0.000
32.139	2.438	1.06530	1.070	23.030	4.261	0.000
32.149	2.438	1.06560	1.070	23.037	4.262	0.000
32.159	2.439	1.06600	1.071	23.044	4.264	0.000
32.169	2.440	1.06630	1.071	23.051	4.265	0.000
32.179	2.441	1.06660	1.071	23.065	4.266	0.000
32.19	2.442	1.06700	1.072	23.072	4.268	0.000
32.2	2.442	1.06730	1.072	23.072	4.269	0.000
32.21	2.443	1.06770	1.072	23.079	4.271	0.000
32.22	2.443	1.06800	1.073	23.086	4.272	0.000
32.23	2.443	1.06830	1.073	23.086	4.273	0.000
32.24	2.443	1.06870	1.073	23.086	4.275	0.000
32.25	2.445	1.06900	1.074	23.100	4.276	0.000
32.26	2.446	1.06930	1.074	23.107	4.277	0.000
32.27	2.446	1.06970	1.074	23.107	4.279	0.000
32.28	2.447	1.07000	1.075	23.121	4.280	0.000
32.29	2.447	1.07030	1.075	23.121	4.281	0.000
32.3	2.447	1.07070	1.075	23.121	4.283	0.000
32.31	2.449	1.07100	1.076	23.135	4.284	0.000
32.32	2.449	1.07130	1.076	23.142	4.285	0.000
32.33	2.449	1.07170	1.076	23.142	4.287	0.000
32.34	2.449	1.07200	1.077	23.142	4.288	0.000
32.35	2.450	1.07230	1.077	23.149	4.289	0.000
32.359	2.452	1.07260	1.077	23.163	4.290	0.000
32.369	2.452	1.07300	1.078	23.163	4.292	0.000
32.379	2.452	1.07330	1.078	23.170	4.293	0.000
32.389	2.453	1.07360	1.078	23.176	4.294	0.000
32.399	2.454	1.07400	1.079	23.184	4.296	0.000
32.409	2.454	1.07430	1.079	23.191	4.297	0.000
32.419	2.455	1.07460	1.079	23.198	4.298	0.000
32.429	2.455	1.07500	1.080	23.198	4.300	0.000
32.44	2.455	1.07530	1.080	23.198	4.301	0.000
32.45	2.457	1.07570	1.080	23.211	4.303	0.000
32.46	2.456	1.07600	1.081	23.205	4.304	0.000
32.47	2.457	1.07630	1.081	23.219	4.305	0.000
32.48	2.459	1.07670	1.081	23.233	4.307	0.000
32.49	2.459	1.07700	1.082	23.233	4.308	0.000
32.5	2.460	1.07730	1.082	23.240	4.309	0.000
32.51	2.460	1.07770	1.083	23.240	4.311	0.000
32.52	2.460	1.07800	1.083	23.246	4.312	0.000
32.53	2.462	1.07830	1.083	23.261	4.313	0.000
32.54	2.462	1.07870	1.083	23.261	4.315	0.000
32.55	2.461	1.07900	1.084	23.254	4.316	0.000
32.56	2.463	1.07930	1.084	23.268	4.317	0.000
32.57	2.464	1.07970	1.084	23.281	4.319	0.000
32.58	2.464	1.08000	1.085	23.281	4.320	0.000
32.59	2.464	1.08030	1.085	23.281	4.321	0.000
32.6	2.466	1.08070	1.085	23.296	4.323	0.000
32.609	2.466	1.08100	1.086	23.296	4.324	0.000
32.619	2.466	1.08130	1.086	23.296	4.325	0.000
32.629	2.467	1.08160	1.086	23.310	4.326	0.000
32.639	2.467	1.08200	1.087	23.310	4.328	0.000
32.649	2.468	1.08230	1.087	23.316	4.329	0.000
32.659	2.469	1.08260	1.087	23.324	4.330	0.000
32.669	2.469	1.08300	1.088	23.324	4.332	0.000
32.679	2.470	1.08330	1.088	23.338	4.333	0.000
32.69	2.470	1.08370	1.088	23.338	4.335	0.000
32.7	2.470	1.08400	1.089	23.338	4.336	0.000
32.71	2.471	1.08430	1.089	23.351	4.337	0.000
32.72	2.472	1.08470	1.089	23.359	4.339	0.000
32.73	2.472	1.08500	1.090	23.359	4.340	0.000
32.74	2.472	1.08530	1.090	23.359	4.341	0.000
32.75	2.474	1.08570	1.090	23.373	4.343	0.000
32.76	2.474	1.08600	1.091	23.380	4.344	0.000
32.77	2.474	1.08630	1.091	23.380	4.345	0.000
32.78	2.475	1.08670	1.091	23.386	4.347	0.000
32.79	2.476	1.08700	1.092	23.394	4.348	0.000
32.8	2.475	1.08730	1.092	23.386	4.349	0.000
32.81	2.477	1.08770	1.092	23.400	4.351	0.000
32.82	2.478	1.08800	1.093	23.415	4.352	0.000
32.83	2.477	1.08830	1.093	23.408	4.353	0.000
32.84	2.478	1.08870	1.093	23.415	4.355	0.000
32.85	2.480	1.08900	1.094	23.429	4.356	0.000
32.859	2.480	1.08930	1.094	23.429	4.357	0.000
32.869	2.480	1.08960	1.094	23.429	4.358	0.000
32.879	2.481	1.09000	1.095	23.443	4.360	0.000
32.889	2.481	1.09030	1.095	23.443	4.361	0.000
32.899	2.482	1.09060	1.095	23.450	4.362	0.000
32.909	2.483	1.09100	1.096	23.464	4.364	0.000
32.919	2.483	1.09130	1.096	23.456	4.365	0.000
32.929	2.483	1.09160	1.096	23.464	4.366	0.000
32.94	2.485	1.09200	1.097	23.478	4.368	0.000
32.95	2.485	1.09230	1.097	23.478	4.369	0.000
32.96	2.486	1.09270	1.097	23.485	4.371	0.000
32.97	2.486	1.09300	1.098	23.491	4.372	0.000
32.98	2.486	1.09330	1.098	23.491	4.373	0.000
32.99	2.486	1.09370	1.098	23.491	4.375	0.000
33	2.487	1.09400	1.099	23.499	4.376	0.000
33.01	2.489	1.09430	1.099	23.513	4.377	0.000
33.02	2.489	1.09470	1.099	23.519	4.379	0.000
33.03	2.489	1.09500	1.100	23.519	4.380	0.000
33.04	2.489	1.09530	1.100	23.519	4.381	0.000
33.05	2.490	1.09570	1.100	23.526	4.383	0.000
33.06	2.491	1.09600	1.101	23.540	4.384	0.000
33.07	2.491	1.09630	1.101	23.540	4.385	0.000
33.08	2.492	1.09670	1.101	23.548	4.387	0.000
33.09	2.492	1.09700	1.102	23.548	4.388	0.000
33.1	2.493	1.09730	1.102	23.554	4.389	0.000
33.109	2.494	1.09760	1.102	23.561	4.390	0.000
33.119	2.494	1.09800	1.103	23.569	4.392	0.000
33.129	2.495	1.09830	1.103	23.575	4.393	0.000
33.139	2.494	1.09860	1.103	23.569	4.394	0.000
33.149	2.497	1.09900	1.104	23.589	4.396	0.000
33.159	2.497	1.09930	1.104	23.589	4.397	0.000
33.169	2.497	1.09960	1.104	23.589	4.398	0.000
33.179	2.498	1.10000	1.105	23.604	4.400	0.000
33.19	2.497	1.10030	1.105	23.597	4.401	0.000
33.2	2.498	1.10070	1.105	23.604	4.403	0.000
33.21	2.499	1.10100	1.106	23.610	4.404	0.000
33.22	2.499	1.10130	1.106	23.610	4.405	0.000
33.23	2.500	1.10170	1.106	23.618	4.407	0.000
33.24	2.500	1.10200	1.107	23.624	4.408	0.000
33.25	2.501	1.10230	1.107	23.632	4.409	0.000
33.26	2.501	1.10270	1.107	23.632	4.411	0.000
33.27	2.503	1.10300	1.108	23.645	4.412	0.000
33.28	2.504	1.10330	1.108	23.659	4.413	0.000
33.29	2.503	1.10370	1.108	23.653	4.415	0.000
33.3	2.503	1.10400	1.109	23.653	4.416	0.000
33.31	2.505	1.10430	1.109	23.667	4.417	0.000
33.32	2.505	1.10470	1.109	23.667	4.419	0.000
33.33	2.505	1.10500	1.110	23.667	4.420	0.000
33.34	2.506	1.10530	1.110	23.673	4.421	0.000
33.35	2.507	1.10570	1.110	23.688	4.423	0.000
33.359	2.507	1.10600	1.111	23.688	4.424	0.000
33.369	2.507	1.10630	1.111	23.688	4.425	0.000
33.379	2.509	1.10660	1.112	23.708	4.426	0.000
33.389	2.509	1.10700	1.112	23.708	4.428	0.000
33.399	2.509	1.10730	1.112	23.708	4.429	0.000
33.409	2.510	1.10760	1.112	23.715	4.430	0.000
33.419	2.510	1.10800	1.113	23.715	4.432	0.000
33.429	2.511	1.10830	1.113	23.723	4.433	0.000
33.44	2.511	1.10870	1.113	23.729	4.435	0.000
33.45	2.512	1.10900	1.114	23.737	4.436	0.000
33.46	2.511	1.10940	1.114	23.729	4.438	0.000
33.47	2.512	1.10970	1.114	23.737	4.439	0.000
33.48	2.514	1.11000	1.115	23.758	4.440	0.000
33.49	2.515	1.11040	1.115	23.764	4.442	0.000
33.5	2.514	1.11070	1.115	23.758	4.443	0.000
33.51	2.514	1.11100	1.116	23.758	4.444	0.000
33.52	2.516	1.11140	1.116	23.772	4.446	0.000
33.53	2.517	1.11170	1.116	23.778	4.447	0.000
33.54	2.517	1.11200	1.117	23.778	4.448	0.000
33.55	2.517	1.11230	1.117	23.785	4.449	0.000
33.56	2.519	1.11270	1.117	23.799	4.451	0.000
33.57	2.519	1.11300	1.118	23.799	4.452	0.000
33.58	2.518	1.11330	1.118	23.793	4.453	0.000
33.59	2.518	1.11370	1.118	23.793	4.455	0.000
33.6	2.520	1.11400	1.119	23.813	4.456	0.000
33.609	2.521	1.11430	1.119	23.820	4.457	0.000
33.619	2.522	1.11460	1.119	23.827	4.458	0.000
33.629	2.522	1.11500	1.120	23.827	4.460	0.000
33.639	2.522	1.11530	1.120	23.827	4.461	0.000
33.649	2.523	1.11560	1.120	23.842	4.462	0.000
33.659	2.523	1.11600	1.121	23.834	4.464	0.000
33.669	2.523	1.11590	1.121	23.842	4.464	0.000
33.679	2.525	1.11620	1.121	23.855	4.465	0.000
33.69	2.525	1.11660	1.122	23.855	4.466	0.000
33.7	2.526	1.11700	1.122	23.862	4.468	0.000
33.71	2.526	1.11730	1.122	23.869	4.469	0.000
33.72	2.526	1.11760	1.123	23.869	4.470	0.000
33.73	2.527	1.11800	1.123	23.877	4.472	0.000
33.74	2.528	1.11830	1.123	23.883	4.473	0.000
33.75	2.527	1.11860	1.124	23.877	4.474	0.000
33.76	2.528	1.11900	1.124	23.883	4.476	0.000
33.77	2.530	1.11930	1.124	23.904	4.477	0.000
33.78	2.530	1.11970	1.125	23.904	4.479	0.000
33.79	2.529	1.12000	1.125	23.897	4.480	0.000
33.8	2.530	1.12030	1.125	23.904	4.481	0.000
33.81	2.532	1.12070	1.126	23.918	4.483	0.000
33.82	2.532	1.12100	1.126	23.918	4.484	0.000
33.83	2.531	1.12130	1.126	23.912	4.485	0.000
33.84	2.532	1.12170	1.127	23.925	4.487	0.000
33.85	2.534	1.12200	1.127	23.939	4.488	0.000
33.859	2.533	1.12230	1.127	23.932	4.489	0.000
33.869	2.534	1.12260	1.128	23.939	4.490	0.000
33.879	2.534	1.12300	1.128	23.947	4.492	0.000
33.889	2.534	1.12330	1.128	23.939	4.493	0.000
33.899	2.535	1.12360	1.129	23.953	4.494	0.000
33.909	2.536	1.12400	1.129	23.960	4.496	0.000
33.919	2.536	1.12430	1.129	23.960	4.497	0.000
33.929	2.537	1.12460	1.130	23.974	4.498	0.000
33.94	2.538	1.12500	1.130	23.981	4.500	0.000
33.95	2.539	1.12530	1.130	23.988	4.501	0.000
33.96	2.539	1.12570	1.131	23.988	4.503	0.000
33.97	2.538	1.12600	1.131	23.981	4.504	0.000
33.98	2.540	1.12630	1.131	23.995	4.505	0.000
33.99	2.541	1.12670	1.132	24.009	4.507	0.000
34	2.540	1.12700	1.132	24.002	4.508	0.000
34.01	2.541	1.12730	1.132	24.009	4.509	0.000
34.02	2.541	1.12770	1.133	24.009	4.511	0.000
34.03	2.542	1.12800	1.133	24.016	4.512	0.000
34.04	2.543	1.12830	1.133	24.030	4.513	0.000
34.05	2.543	1.12870	1.134	24.023	4.515	0.000
34.06	2.543	1.12900	1.134	24.030	4.516	0.000
34.07	2.543	1.12930	1.134	24.030	4.517	0.000
34.08	2.544	1.12970	1.135	24.037	4.519	0.000
34.09	2.546	1.13000	1.135	24.051	4.520	0.000
34.1	2.546	1.13030	1.135	24.051	4.521	0.000
34.109	2.546	1.13060	1.136	24.051	4.522	0.000
34.119	2.546	1.13100	1.136	24.051	4.524	0.000
34.129	2.547	1.13130	1.136	24.065	4.525	0.000
34.139	2.548	1.13160	1.137	24.072	4.526	0.000
34.149	2.547	1.13200	1.137	24.065	4.528	0.000
34.159	2.548	1.13230	1.137	24.072	4.529	0.000
34.169	2.549	1.13260	1.138	24.086	4.530	0.000
34.179	2.549	1.13300	1.138	24.086	4.532	0.000
34.19	2.550	1.13330	1.138	24.093	4.533	0.000
34.2	2.551	1.13370	1.139	24.100	4.535	0.000
34.21	2.550	1.13400	1.139	24.093	4.536	0.000
34.22	2.550	1.13430	1.139	24.093	4.537	0.000
34.23	2.552	1.13470	1.140	24.114	4.539	0.000
34.24	2.553	1.13500	1.140	24.121	4.540	0.000
34.25	2.553	1.13530	1.140	24.121	4.541	0.000
34.26	2.554	1.13570	1.141	24.128	4.543	0.000
34.27	2.553	1.13600	1.141	24.121	4.544	0.000
34.28	2.554	1.13630	1.141	24.135	4.545	0.000
34.29	2.555	1.13670	1.142	24.142	4.547	0.000
34.3	2.555	1.13700	1.142	24.142	4.548	0.000
34.31	2.556	1.13730	1.142	24.149	4.549	0.000
34.32	2.556	1.13770	1.143	24.149	4.551	0.000
34.33	2.556	1.13800	1.143	24.149	4.552	0.000
34.34	2.557	1.13830	1.143	24.163	4.553	0.000
34.35	2.558	1.13870	1.144	24.170	4.555	0.000
34.359	2.558	1.13900	1.144	24.170	4.556	0.000
34.369	2.559	1.13930	1.144	24.177	4.557	0.000
34.379	2.560	1.13960	1.145	24.184	4.558	0.000
34.389	2.560	1.14000	1.145	24.184	4.560	0.000
34.399	2.560	1.14030	1.145	24.184	4.561	0.000
34.409	2.560	1.14060	1.146	24.191	4.562	0.000
34.419	2.561	1.14100	1.146	24.198	4.564	0.000
34.429	2.562	1.14130	1.146	24.204	4.565	0.000
34.44	2.562	1.14170	1.147	24.204	4.567	0.000
34.45	2.563	1.14200	1.147	24.212	4.568	0.000
34.46	2.563	1.14230	1.147	24.219	4.569	0.000
34.47	2.563	1.14270	1.148	24.219	4.571	0.000
34.48	2.564	1.14300	1.148	24.226	4.572	0.000
34.49	2.564	1.14330	1.148	24.226	4.573	0.000
34.5	2.565	1.14370	1.149	24.233	4.575	0.000
34.51	2.566	1.14400	1.149	24.247	4.576	0.000
34.52	2.566	1.14430	1.149	24.247	4.577	0.000
34.53	2.566	1.14470	1.150	24.247	4.579	0.000
34.54	2.566	1.14500	1.150	24.247	4.580	0.000
34.55	2.567	1.14530	1.150	24.254	4.581	0.000
34.56	2.568	1.14570	1.151	24.261	4.583	0.000
34.57	2.568	1.14600	1.151	24.261	4.584	0.000
34.58	2.569	1.14630	1.151	24.268	4.585	0.000
34.59	2.569	1.14670	1.152	24.275	4.587	0.000
34.6	2.569	1.14700	1.152	24.275	4.588	0.000
34.609	2.570	1.14730	1.152	24.282	4.589	0.000
34.619	2.571	1.14760	1.153	24.289	4.590	0.000
34.629	2.571	1.14800	1.153	24.289	4.592	0.000
34.639	2.571	1.14830	1.153	24.289	4.593	0.000
34.649	2.572	1.14860	1.154	24.296	4.594	0.000
34.659	2.572	1.14900	1.154	24.303	4.596	0.000
34.669	2.572	1.14930	1.154	24.303	4.597	0.000
34.679	2.573	1.14960	1.155	24.310	4.598	0.000
34.69	2.574	1.15000	1.155	24.317	4.600	0.000
34.7	2.574	1.15030	1.155	24.317	4.601	0.000
34.71	2.575	1.15070	1.156	24.331	4.603	0.000
34.72	2.575	1.15100	1.156	24.331	4.604	0.000
34.73	2.574	1.15130	1.156	24.324	4.605	0.000
34.74	2.576	1.15170	1.157	24.338	4.607	0.000
34.75	2.577	1.15200	1.157	24.345	4.608	0.000
34.76	2.577	1.15230	1.157	24.352	4.609	0.000
34.77	2.577	1.15270	1.158	24.352	4.611	0.000
34.78	2.577	1.15300	1.158	24.352	4.612	0.000
34.79	2.579	1.15330	1.158	24.366	4.613	0.000
34.8	2.579	1.15370	1.159	24.366	4.615	0.000
34.81	2.578	1.15400	1.159	24.358	4.616	0.000
34.82	2.580	1.15430	1.160	24.380	4.617	0.000
34.83	2.581	1.15470	1.160	24.387	4.619	0.000
34.84	2.580	1.15500	1.160	24.380	4.620	0.000
34.85	2.581	1.15530	1.160	24.387	4.621	0.000
34.859	2.581	1.15560	1.161	24.387	4.622	0.000
34.869	2.583	1.15600	1.161	24.401	4.624	0.000
34.879	2.583	1.15630	1.161	24.401	4.625	0.000
34.889	2.582	1.15660	1.162	24.393	4.626	0.000
34.899	2.583	1.15700	1.162	24.408	4.628	0.000
34.909	2.585	1.15730	1.162	24.422	4.629	0.000
34.919	2.585	1.15760	1.163	24.422	4.630	0.000
34.929	2.585	1.15800	1.163	24.422	4.632	0.000
34.94	2.586	1.15830	1.163	24.428	4.633	0.000
34.95	2.586	1.15870	1.164	24.428	4.635	0.000
34.96	2.586	1.15900	1.164	24.436	4.636	0.000
34.97	2.587	1.15930	1.164	24.443	4.637	0.000
34.98	2.588	1.15970	1.165	24.450	4.639	0.000
34.99	2.589	1.16000	1.165	24.457	4.640	0.000
35	2.588	1.16030	1.165	24.450	4.641	0.000
35.01	2.588	1.16070	1.166	24.450	4.643	0.000
35.02	2.589	1.16100	1.166	24.457	4.644	0.000
35.03	2.589	1.16130	1.166	24.463	4.645	0.000
35.04	2.591	1.16170	1.167	24.478	4.647	0.000
35.05	2.591	1.16200	1.167	24.478	4.648	0.000
35.06	2.590	1.16230	1.167	24.471	4.649	0.000
35.07	2.592	1.16270	1.168	24.485	4.651	0.000
35.08	2.592	1.16300	1.168	24.492	4.652	0.000
35.09	2.592	1.16330	1.168	24.485	4.653	0.000
35.1	2.593	1.16370	1.169	24.498	4.655	0.000
35.109	2.594	1.16400	1.169	24.506	4.656	0.000
35.119	2.593	1.16430	1.169	24.498	4.657	0.000
35.129	2.594	1.16460	1.170	24.506	4.658	0.000
35.139	2.595	1.16500	1.170	24.520	4.660	0.000
35.149	2.596	1.16530	1.170	24.527	4.661	0.000
35.159	2.595	1.16560	1.171	24.520	4.662	0.000
35.169	2.595	1.16600	1.171	24.520	4.664	0.000
35.179	2.597	1.16630	1.171	24.533	4.665	0.000
35.19	2.597	1.16670	1.172	24.533	4.667	0.000
35.2	2.597	1.16700	1.172	24.541	4.668	0.000
35.21	2.598	1.16730	1.172	24.547	4.669	0.000
35.22	2.598	1.16770	1.173	24.547	4.671	0.000
35.23	2.599	1.16800	1.173	24.555	4.672	0.000
35.24	2.599	1.16830	1.173	24.555	4.673	0.000
35.25	2.600	1.16870	1.174	24.562	4.675	0.000
35.26	2.601	1.16900	1.174	24.576	4.676	0.000
35.27	2.601	1.16930	1.174	24.576	4.677	0.000
35.28	2.600	1.16970	1.175	24.568	4.679	0.000
35.29	2.601	1.17000	1.175	24.576	4.680	0.000
35.3	2.602	1.17030	1.175	24.582	4.681	0.000
35.31	2.602	1.17070	1.176	24.582	4.683	0.000
35.32	2.602	1.17100	1.176	24.582	4.684	0.000
35.33	2.603	1.17130	1.176	24.597	4.685	0.000
35.34	2.604	1.17170	1.177	24.603	4.687	0.000
35.35	2.604	1.17200	1.177	24.603	4.688	0.000
35.359	2.604	1.17230	1.177	24.603	4.689	0.000
35.369	2.604	1.17260	1.178	24.603	4.690	0.000
35.379	2.605	1.17300	1.178	24.611	4.692	0.000
35.389	2.605	1.17330	1.178	24.617	4.693	0.000
35.399	2.607	1.17360	1.179	24.632	4.694	0.000
35.409	2.607	1.17400	1.179	24.632	4.696	0.000
35.419	2.606	1.17430	1.179	24.625	4.697	0.000
35.429	2.607	1.17460	1.180	24.632	4.698	0.000
35.44	2.608	1.17500	1.180	24.638	4.700	0.000
35.45	2.609	1.17530	1.180	24.646	4.701	0.000
35.46	2.610	1.17570	1.181	24.660	4.703	0.000
35.47	2.610	1.17600	1.181	24.660	4.704	0.000
35.48	2.610	1.17630	1.181	24.660	4.705	0.000
35.49	2.611	1.17670	1.182	24.666	4.707	0.000
35.5	2.611	1.17700	1.182	24.666	4.708	0.000
35.51	2.611	1.17730	1.182	24.673	4.709	0.000
35.52	2.612	1.17770	1.183	24.681	4.711	0.000
35.53	2.612	1.17800	1.183	24.681	4.712	0.000
35.54	2.613	1.17830	1.183	24.687	4.713	0.000
35.55	2.614	1.17870	1.184	24.695	4.715	0.000
35.56	2.614	1.17900	1.184	24.695	4.716	0.000
35.57	2.614	1.17930	1.184	24.701	4.717	0.000
35.58	2.615	1.17970	1.185	24.708	4.719	0.000
35.59	2.616	1.18000	1.185	24.716	4.720	0.000
35.6	2.616	1.18030	1.185	24.716	4.721	0.000
35.609	2.615	1.18060	1.186	24.708	4.722	0.000
35.619	2.616	1.18100	1.186	24.716	4.724	0.000
35.629	2.617	1.18130	1.186	24.730	4.725	0.000
35.639	2.617	1.18160	1.187	24.730	4.726	0.000
35.649	2.618	1.18200	1.187	24.736	4.728	0.000
35.659	2.620	1.18230	1.187	24.751	4.729	0.000
35.669	2.619	1.18260	1.188	24.743	4.730	0.000
35.679	2.619	1.18300	1.188	24.743	4.732	0.000
35.69	2.620	1.18330	1.188	24.757	4.733	0.000
35.7	2.620	1.18370	1.189	24.757	4.735	0.000
35.71	2.620	1.18400	1.189	24.757	4.736	0.000
35.72	2.621	1.18430	1.189	24.765	4.737	0.000
35.73	2.622	1.18470	1.190	24.771	4.739	0.000
35.74	2.622	1.18500	1.190	24.771	4.740	0.000
35.75	2.622	1.18530	1.190	24.778	4.741	0.000
35.76	2.623	1.18570	1.191	24.786	4.743	0.000
35.77	2.622	1.18600	1.191	24.778	4.744	0.000
35.78	2.625	1.18630	1.191	24.800	4.745	0.000
35.79	2.625	1.18670	1.192	24.800	4.747	0.000
35.8	2.624	1.18700	1.192	24.792	4.748	0.000
35.81	2.625	1.18730	1.192	24.806	4.749	0.000
35.82	2.626	1.18770	1.193	24.813	4.751	0.000
35.83	2.627	1.18800	1.193	24.820	4.752	0.000
35.84	2.626	1.18830	1.193	24.813	4.753	0.000
35.85	2.627	1.18870	1.194	24.820	4.755	0.000
35.859	2.628	1.18900	1.194	24.835	4.756	0.000
35.869	2.627	1.18930	1.194	24.820	4.757	0.000
35.879	2.627	1.18960	1.195	24.820	4.758	0.000
35.889	2.629	1.19000	1.195	24.841	4.760	0.000
35.899	2.630	1.19030	1.195	24.848	4.761	0.000
35.909	2.630	1.19060	1.196	24.848	4.762	0.000
35.919	2.630	1.19100	1.196	24.848	4.764	0.000
35.929	2.630	1.19130	1.196	24.848	4.765	0.000
35.94	2.631	1.19170	1.197	24.855	4.767	0.000
35.95	2.632	1.19200	1.197	24.870	4.768	0.000
35.96	2.631	1.19230	1.197	24.862	4.769	0.000
35.97	2.632	1.19270	1.198	24.870	4.771	0.000
35.98	2.633	1.19300	1.198	24.876	4.772	0.000
35.99	2.632	1.19330	1.198	24.870	4.773	0.000
36	2.634	1.19370	1.199	24.883	4.775	0.000
36.01	2.634	1.19400	1.199	24.890	4.776	0.000
36.02	2.634	1.19430	1.199	24.890	4.777	0.000
36.03	2.635	1.19470	1.200	24.897	4.779	0.000
36.04	2.635	1.19500	1.200	24.897	4.780	0.000
36.05	2.636	1.19530	1.200	24.905	4.781	0.000
36.06	2.637	1.19570	1.201	24.919	4.783	0.000
36.07	2.637	1.19600	1.201	24.911	4.784	0.000
36.08	2.637	1.19630	1.201	24.919	4.785	0.000
36.09	2.637	1.19670	1.202	24.919	4.787	0.000
36.1	2.637	1.19700	1.202	24.919	4.788	0.000
36.109	2.639	1.19730	1.202	24.932	4.789	0.000
36.119	2.640	1.19760	1.203	24.940	4.790	0.000
36.129	2.640	1.19800	1.203	24.946	4.792	0.000
36.139	2.640	1.19830	1.203	24.946	4.793	0.000
36.149	2.640	1.19860	1.204	24.946	4.794	0.000
36.159	2.641	1.19900	1.204	24.954	4.796	0.000
36.169	2.642	1.19930	1.204	24.960	4.797	0.000
36.179	2.642	1.19960	1.205	24.960	4.798	0.000
36.19	2.642	1.20000	1.205	24.967	4.800	0.000
36.2	2.643	1.20030	1.205	24.974	4.801	0.000
36.21	2.644	1.20070	1.206	24.981	4.803	0.000
36.22	2.644	1.20100	1.206	24.981	4.804	0.000
36.23	2.643	1.20130	1.206	24.974	4.805	0.000
36.24	2.644	1.20170	1.207	24.981	4.807	0.000
36.25	2.645	1.20200	1.207	24.989	4.808	0.000
36.26	2.645	1.20230	1.207	24.995	4.809	0.000
36.27	2.646	1.20270	1.208	25.002	4.811	0.000
36.28	2.646	1.20300	1.208	25.002	4.812	0.000
36.29	2.647	1.20330	1.208	25.009	4.813	0.000
36.3	2.647	1.20370	1.209	25.009	4.815	0.000
36.31	2.648	1.20400	1.209	25.016	4.816	0.000
36.32	2.649	1.20430	1.209	25.030	4.817	0.000
36.33	2.649	1.20470	1.210	25.030	4.819	0.000
36.34	2.649	1.20500	1.210	25.030	4.820	0.000
36.35	2.650	1.20530	1.210	25.037	4.821	0.000
36.359	2.650	1.20560	1.211	25.037	4.822	0.000
36.369	2.650	1.20600	1.211	25.037	4.824	0.000
36.379	2.651	1.20630	1.211	25.044	4.825	0.000
36.389	2.651	1.20660	1.212	25.051	4.826	0.000
36.399	2.651	1.20700	1.212	25.051	4.828	0.000
36.409	2.652	1.20730	1.212	25.059	4.829	0.000
36.419	2.653	1.20760	1.213	25.065	4.830	0.000
36.429	2.653	1.20800	1.213	25.065	4.832	0.000
36.44	2.654	1.20830	1.214	25.072	4.833	0.000
36.45	2.654	1.20870	1.214	25.072	4.835	0.000
36.46	2.654	1.20900	1.214	25.079	4.836	0.000
36.47	2.655	1.20930	1.214	25.086	4.837	0.000
36.48	2.656	1.20970	1.215	25.094	4.839	0.000
36.49	2.656	1.21000	1.215	25.094	4.840	0.000
36.5	2.656	1.21030	1.215	25.094	4.841	0.000
36.51	2.657	1.21070	1.216	25.100	4.843	0.000
36.52	2.657	1.21100	1.216	25.100	4.844	0.000
36.53	2.657	1.21130	1.216	25.100	4.845	0.000
36.54	2.657	1.21170	1.217	25.107	4.847	0.000
36.55	2.659	1.21200	1.217	25.121	4.848	0.000
36.56	2.659	1.21230	1.217	25.121	4.849	0.000
36.57	2.659	1.21270	1.218	25.121	4.851	0.000
36.58	2.660	1.21300	1.218	25.128	4.852	0.000
36.59	2.660	1.21330	1.218	25.135	4.853	0.000
36.6	2.661	1.21370	1.219	25.142	4.855	0.000
36.609	2.661	1.21400	1.219	25.142	4.856	0.000
36.619	2.661	1.21430	1.219	25.142	4.857	0.000
36.629	2.662	1.21460	1.220	25.149	4.858	0.000
36.639	2.662	1.21500	1.220	25.156	4.860	0.000
36.649	2.663	1.21530	1.220	25.163	4.861	0.000
36.659	2.663	1.21560	1.221	25.163	4.862	0.000
36.669	2.663	1.21600	1.221	25.163	4.864	0.000
36.679	2.665	1.21630	1.221	25.177	4.865	0.000
36.69	2.665	1.21670	1.222	25.184	4.867	0.000
36.7	2.665	1.21700	1.222	25.177	4.868	0.000
36.71	2.665	1.21730	1.222	25.184	4.869	0.000
36.72	2.666	1.21770	1.223	25.191	4.871	0.000
36.73	2.666	1.21800	1.223	25.191	4.872	0.000
36.74	2.667	1.21830	1.223	25.198	4.873	0.000
36.75	2.668	1.21870	1.224	25.205	4.875	0.000
36.76	2.668	1.21900	1.224	25.205	4.876	0.000
36.77	2.668	1.21930	1.224	25.212	4.877	0.000
36.78	2.669	1.21970	1.225	25.219	4.879	0.000
36.79	2.668	1.22000	1.225	25.212	4.880	0.000
36.8	2.669	1.22030	1.225	25.219	4.881	0.000
36.81	2.670	1.22070	1.226	25.226	4.883	0.000
36.82	2.671	1.22100	1.226	25.233	4.884	0.000
36.83	2.671	1.22130	1.226	25.233	4.885	0.000
36.84	2.671	1.22170	1.227	25.233	4.887	0.000
36.85	2.671	1.22200	1.227	25.240	4.888	0.000
36.859	2.672	1.22230	1.227	25.247	4.889	0.000
36.869	2.672	1.22260	1.228	25.247	4.890	0.000
36.879	2.671	1.22300	1.228	25.240	4.892	0.000
36.889	2.673	1.22330	1.228	25.254	4.893	0.000
36.899	2.674	1.22360	1.229	25.261	4.894	0.000
36.909	2.674	1.22400	1.229	25.268	4.896	0.000
36.919	2.674	1.22430	1.229	25.268	4.897	0.000
36.929	2.674	1.22460	1.230	25.268	4.898	0.000
36.94	2.677	1.22500	1.230	25.289	4.900	0.000
36.95	2.676	1.22530	1.230	25.282	4.901	0.000
36.96	2.676	1.22570	1.231	25.282	4.903	0.000
36.97	2.677	1.22600	1.231	25.296	4.904	0.000
36.98	2.678	1.22630	1.232	25.303	4.905	0.000
36.99	2.679	1.22670	1.232	25.310	4.907	0.000
37	2.679	1.22700	1.232	25.310	4.908	0.000
37.01	2.679	1.22730	1.232	25.310	4.909	0.000
37.02	2.678	1.22770	1.233	25.303	4.911	0.000
37.03	2.679	1.22800	1.233	25.310	4.912	0.000
37.04	2.681	1.22830	1.233	25.331	4.913	0.000
37.05	2.681	1.22870	1.234	25.331	4.915	0.000
37.06	2.680	1.22900	1.234	25.324	4.916	0.000
37.07	2.681	1.22930	1.234	25.331	4.917	0.000
37.08	2.682	1.22970	1.235	25.338	4.919	0.000
37.09	2.682	1.23000	1.235	25.338	4.920	0.000
37.1	2.683	1.23030	1.235	25.351	4.921	0.000
37.109	2.684	1.23060	1.236	25.359	4.922	0.000
37.119	2.684	1.23100	1.236	25.359	4.924	0.000
37.129	2.685	1.23130	1.236	25.366	4.925	0.000
37.139	2.684	1.23160	1.237	25.359	4.926	0.000
37.149	2.685	1.23200	1.237	25.366	4.928	0.000
37.159	2.685	1.23230	1.237	25.366	4.929	0.000
37.169	2.685	1.23260	1.238	25.366	4.930	0.000
37.179	2.687	1.23300	1.238	25.386	4.932	0.000
37.19	2.688	1.23330	1.238	25.394	4.933	0.000
37.2	2.687	1.23370	1.239	25.386	4.935	0.000
37.21	2.687	1.23400	1.239	25.386	4.936	0.000
37.22	2.688	1.23430	1.239	25.401	4.937	0.000
37.23	2.688	1.23470	1.240	25.401	4.939	0.000
37.24	2.688	1.23500	1.240	25.401	4.940	0.000
37.25	2.689	1.23530	1.240	25.408	4.941	0.000
37.26	2.690	1.23570	1.241	25.415	4.943	0.000
37.27	2.691	1.23600	1.241	25.421	4.944	0.000
37.28	2.691	1.23630	1.241	25.421	4.945	0.000
37.29	2.691	1.23670	1.242	25.429	4.947	0.000
37.3	2.691	1.23700	1.242	25.429	4.948	0.000
37.31	2.692	1.23730	1.242	25.436	4.949	0.000
37.32	2.693	1.23770	1.243	25.443	4.951	0.000
37.33	2.693	1.23800	1.243	25.443	4.952	0.000
37.34	2.694	1.23830	1.243	25.450	4.953	0.000
37.35	2.694	1.23870	1.244	25.450	4.955	0.000
37.359	2.694	1.23900	1.244	25.456	4.956	0.000
37.369	2.695	1.23930	1.244	25.464	4.957	0.000
37.379	2.696	1.23960	1.245	25.471	4.958	0.000
37.389	2.696	1.24000	1.245	25.471	4.960	0.000
37.399	2.696	1.24030	1.245	25.471	4.961	0.000
37.409	2.697	1.24060	1.246	25.478	4.962	0.000
37.419	2.697	1.24100	1.246	25.485	4.964	0.000
37.429	2.698	1.24130	1.246	25.491	4.965	0.000
37.44	2.698	1.24170	1.247	25.491	4.967	0.000
37.45	2.697	1.24200	1.247	25.485	4.968	0.000
37.46	2.698	1.24230	1.247	25.491	4.969	0.000
37.47	2.700	1.24270	1.248	25.505	4.971	0.000
37.48	2.700	1.24300	1.248	25.505	4.972	0.000
37.49	2.700	1.24330	1.248	25.513	4.973	0.000
37.5	2.700	1.24370	1.249	25.513	4.975	0.000
37.51	2.701	1.24400	1.249	25.520	4.976	0.000
37.52	2.703	1.24430	1.249	25.534	4.977	0.000
37.53	2.703	1.24470	1.250	25.534	4.979	0.000
37.54	2.703	1.24500	1.250	25.534	4.980	0.000
37.55	2.703	1.24530	1.250	25.534	4.981	0.000
37.56	2.703	1.24570	1.251	25.540	4.983	0.000
37.57	2.703	1.24600	1.251	25.540	4.984	0.000
37.58	2.704	1.24630	1.251	25.548	4.985	0.000
37.59	2.705	1.24670	1.252	25.555	4.987	0.000
37.6	2.705	1.24700	1.252	25.561	4.988	0.000
37.609	2.706	1.24730	1.252	25.569	4.989	0.000
37.619	2.705	1.24760	1.253	25.561	4.990	0.000
37.629	2.706	1.24800	1.253	25.569	4.992	0.000
37.639	2.707	1.24830	1.253	25.575	4.993	0.000
37.649	2.707	1.24860	1.254	25.575	4.994	0.000
37.659	2.708	1.24900	1.254	25.583	4.996	0.000
37.669	2.708	1.24930	1.254	25.590	4.997	0.000
37.679	2.709	1.24960	1.255	25.597	4.998	0.000
37.69	2.709	1.25000	1.255	25.597	5.000	0.000
37.7	2.710	1.25030	1.255	25.604	5.001	0.000
37.71	2.711	1.25070	1.256	25.610	5.003	0.000
37.72	2.710	1.25100	1.256	25.604	5.004	0.000
37.73	2.711	1.25130	1.256	25.618	5.005	0.000
37.74	2.712	1.25170	1.257	25.625	5.007	0.000
37.75	2.711	1.25200	1.257	25.618	5.008	0.000
37.76	2.713	1.25230	1.257	25.632	5.009	0.000
37.77	2.713	1.25270	1.258	25.632	5.011	0.000
37.78	2.713	1.25300	1.258	25.632	5.012	0.000
37.79	2.714	1.25330	1.258	25.639	5.013	0.000
37.8	2.714	1.25370	1.259	25.639	5.015	0.000
37.81	2.716	1.25400	1.259	25.659	5.016	0.000
37.82	2.716	1.25430	1.259	25.659	5.017	0.000
37.83	2.714	1.25470	1.260	25.645	5.019	0.000
37.84	2.715	1.25500	1.260	25.653	5.020	0.000
37.85	2.717	1.25530	1.260	25.667	5.021	0.000
37.859	2.717	1.25560	1.261	25.674	5.022	0.000
37.869	2.717	1.25600	1.261	25.674	5.024	0.000
37.879	2.718	1.25600	1.261	25.680	5.024	0.000
37.889	2.718	1.25630	1.262	25.680	5.025	0.000
37.899	2.719	1.25670	1.262	25.688	5.027	0.000
37.909	2.720	1.25700	1.262	25.694	5.028	0.000
37.919	2.720	1.25730	1.263	25.694	5.029	0.000
37.929	2.720	1.25770	1.263	25.702	5.031	0.000
37.94	2.720	1.25800	1.263	25.702	5.032	0.000
37.95	2.721	1.25840	1.264	25.709	5.034	0.000
37.96	2.722	1.25870	1.264	25.715	5.035	0.000
37.97	2.722	1.25900	1.264	25.715	5.036	0.000
37.98	2.723	1.25940	1.265	25.723	5.038	0.000
37.99	2.723	1.25970	1.265	25.723	5.039	0.000
38	2.723	1.26000	1.265	25.723	5.040	0.000
38.01	2.724	1.26040	1.266	25.737	5.042	0.000
38.02	2.725	1.26070	1.266	25.750	5.043	0.000
38.03	2.725	1.26100	1.266	25.750	5.044	0.000
38.04	2.725	1.26140	1.267	25.744	5.046	0.000
38.05	2.725	1.26170	1.267	25.750	5.047	0.000
38.06	2.725	1.26210	1.267	25.750	5.048	0.000
38.07	2.725	1.26240	1.268	25.750	5.050	0.000
38.08	2.727	1.26270	1.268	25.764	5.051	0.000
38.09	2.728	1.26310	1.268	25.772	5.052	0.000
38.1	2.728	1.26340	1.269	25.772	5.054	0.000
38.109	2.728	1.26370	1.269	25.772	5.055	0.000
38.119	2.728	1.26400	1.269	25.772	5.056	0.000
38.129	2.728	1.26440	1.270	25.779	5.058	0.000
38.139	2.730	1.26470	1.270	25.793	5.059	0.000
38.149	2.729	1.26500	1.270	25.785	5.060	0.000
38.159	2.730	1.26540	1.271	25.793	5.062	0.000
38.169	2.731	1.26570	1.271	25.807	5.063	0.000
38.179	2.731	1.26600	1.271	25.799	5.064	0.000
38.19	2.732	1.26640	1.272	25.813	5.066	0.000
38.2	2.733	1.26670	1.272	25.820	5.067	0.000
38.21	2.732	1.26710	1.272	25.813	5.068	0.000
38.22	2.733	1.26740	1.273	25.820	5.070	0.000
38.23	2.734	1.26770	1.273	25.828	5.071	0.000
38.24	2.734	1.26810	1.273	25.834	5.072	0.000
38.25	2.734	1.26840	1.274	25.834	5.074	0.000
38.26	2.734	1.26870	1.274	25.834	5.075	0.000
38.27	2.736	1.26910	1.274	25.848	5.076	0.000
38.28	2.736	1.26940	1.275	25.848	5.078	0.000
38.29	2.736	1.26970	1.275	25.848	5.079	0.000
38.3	2.736	1.27010	1.275	25.848	5.080	0.000
38.31	2.737	1.27040	1.276	25.863	5.082	0.000
38.32	2.738	1.27070	1.276	25.869	5.083	0.000
38.33	2.737	1.27110	1.276	25.863	5.084	0.000
38.34	2.739	1.27140	1.277	25.877	5.086	0.000
38.35	2.739	1.27170	1.277	25.877	5.087	0.000
38.359	2.740	1.27200	1.277	25.883	5.088	0.000
38.369	2.741	1.27240	1.278	25.898	5.090	0.000
38.379	2.740	1.27270	1.278	25.890	5.091	0.000
38.389	2.740	1.27300	1.278	25.883	5.092	0.000
38.399	2.741	1.27340	1.279	25.898	5.094	0.000
38.409	2.742	1.27370	1.279	25.904	5.095	0.000
38.419	2.741	1.27400	1.279	25.898	5.096	0.000
38.429	2.742	1.27440	1.280	25.904	5.098	0.000
38.44	2.743	1.27470	1.280	25.918	5.099	0.000
38.45	2.744	1.27510	1.280	25.925	5.100	0.000
38.46	2.745	1.27540	1.281	25.933	5.102	0.000
38.47	2.745	1.27570	1.281	25.933	5.103	0.000
38.48	2.744	1.27610	1.281	25.925	5.104	0.000
38.49	2.745	1.27640	1.282	25.933	5.106	0.000
38.5	2.746	1.27670	1.282	25.947	5.107	0.000
38.51	2.746	1.27710	1.282	25.947	5.108	0.000
38.52	2.746	1.27740	1.283	25.947	5.110	0.000
38.53	2.746	1.27770	1.283	25.947	5.111	0.000
38.54	2.747	1.27810	1.283	25.953	5.112	0.000
38.55	2.748	1.27840	1.284	25.960	5.114	0.000
38.56	2.748	1.27870	1.284	25.967	5.115	0.000
38.57	2.749	1.27910	1.284	25.974	5.116	0.000
38.58	2.749	1.27940	1.285	25.974	5.118	0.000
38.59	2.750	1.27970	1.285	25.982	5.119	0.000
38.6	2.749	1.28010	1.285	25.974	5.120	0.000
38.609	2.750	1.28040	1.286	25.982	5.122	0.000
38.619	2.751	1.28070	1.286	25.988	5.123	0.000
38.629	2.751	1.28100	1.286	25.988	5.124	0.000
38.639	2.751	1.28140	1.287	25.995	5.126	0.000
38.649	2.752	1.28170	1.287	26.002	5.127	0.000
38.659	2.753	1.28200	1.287	26.009	5.128	0.000
38.669	2.754	1.28240	1.288	26.017	5.130	0.000
38.679	2.754	1.28270	1.288	26.017	5.131	0.000
38.69	2.754	1.28310	1.288	26.017	5.132	0.000
38.7	2.755	1.28340	1.289	26.030	5.134	0.000
38.71	2.755	1.28370	1.289	26.030	5.135	0.000
38.72	2.755	1.28410	1.289	26.030	5.136	0.000
38.73	2.756	1.28440	1.290	26.037	5.138	0.000
38.74	2.756	1.28470	1.290	26.037	5.139	0.000
38.75	2.757	1.28510	1.290	26.044	5.140	0.000
38.76	2.758	1.28540	1.291	26.058	5.142	0.000
38.77	2.757	1.28570	1.291	26.052	5.143	0.000
38.78	2.757	1.28610	1.291	26.052	5.144	0.000
38.79	2.759	1.28640	1.292	26.065	5.146	0.000
38.8	2.759	1.28670	1.292	26.065	5.147	0.000
38.81	2.759	1.28710	1.292	26.065	5.148	0.000
38.82	2.760	1.28740	1.293	26.072	5.150	0.000
38.83	2.760	1.28770	1.293	26.072	5.151	0.000
38.84	2.760	1.28810	1.293	26.079	5.152	0.000
38.85	2.761	1.28840	1.294	26.087	5.154	0.000
38.859	2.761	1.28870	1.294	26.087	5.155	0.000
38.869	2.761	1.28900	1.294	26.087	5.156	0.000
38.879	2.762	1.28940	1.295	26.100	5.158	0.000
38.889	2.762	1.28970	1.295	26.100	5.159	0.000
38.899	2.762	1.29000	1.295	26.100	5.160	0.000
38.909	2.763	1.29040	1.296	26.107	5.162	0.000
38.919	2.763	1.29070	1.296	26.107	5.163	0.000
38.929	2.764	1.29100	1.296	26.114	5.164	0.000
38.94	2.765	1.29140	1.297	26.122	5.166	0.000
38.95	2.765	1.29170	1.297	26.128	5.167	0.000
38.96	2.765	1.29210	1.297	26.128	5.168	0.000
38.97	2.765	1.29240	1.298	26.128	5.170	0.000
38.98	2.766	1.29270	1.298	26.135	5.171	0.000
38.99	2.767	1.29310	1.298	26.142	5.172	0.000
39	2.767	1.29340	1.299	26.142	5.174	0.000
39.01	2.768	1.29370	1.299	26.149	5.175	0.000
39.02	2.768	1.29410	1.299	26.149	5.176	0.000
39.03	2.768	1.29440	1.300	26.156	5.178	0.000
39.04	2.769	1.29470	1.300	26.163	5.179	0.000
39.05	2.769	1.29510	1.300	26.163	5.180	0.000
39.06	2.770	1.29540	1.301	26.170	5.182	0.000
39.07	2.771	1.29570	1.301	26.177	5.183	0.000
39.08	2.771	1.29610	1.301	26.177	5.184	0.000
39.09	2.771	1.29640	1.302	26.177	5.186	0.000
39.1	2.771	1.29670	1.302	26.184	5.187	0.000
39.109	2.772	1.29700	1.302	26.191	5.188	0.000
39.119	2.772	1.29740	1.303	26.191	5.190	0.000
39.129	2.773	1.29770	1.303	26.198	5.191	0.000
39.139	2.773	1.29800	1.303	26.198	5.192	0.000
39.149	2.773	1.29840	1.304	26.205	5.194	0.000
39.159	2.774	1.29870	1.304	26.212	5.195	0.000
39.169	2.775	1.29900	1.304	26.219	5.196	0.000
39.179	2.775	1.29940	1.305	26.219	5.198	0.000
39.19	2.775	1.29970	1.305	26.219	5.199	0.000
39.2	2.776	1.30010	1.305	26.233	5.200	0.000
39.21	2.776	1.30040	1.306	26.226	5.202	0.000
39.22	2.776	1.30070	1.306	26.233	5.203	0.000
39.23	2.778	1.30110	1.306	26.247	5.204	0.000
39.24	2.778	1.30140	1.307	26.247	5.206	0.000
39.25	2.778	1.30170	1.307	26.247	5.207	0.000
39.26	2.778	1.30210	1.307	26.247	5.208	0.000
39.27	2.779	1.30240	1.308	26.254	5.210	0.000
39.28	2.779	1.30270	1.308	26.254	5.211	0.000
39.29	2.780	1.30310	1.308	26.261	5.212	0.000
39.3	2.781	1.30340	1.309	26.276	5.214	0.000
39.31	2.781	1.30370	1.309	26.276	5.215	0.000
39.32	2.780	1.30410	1.309	26.268	5.216	0.000
39.33	2.781	1.30440	1.310	26.276	5.218	0.000
39.34	2.782	1.30470	1.310	26.289	5.219	0.000
39.35	2.782	1.30510	1.310	26.289	5.220	0.000
39.359	2.782	1.30540	1.311	26.289	5.222	0.000
39.369	2.783	1.30570	1.311	26.296	5.223	0.000
39.379	2.784	1.30600	1.311	26.303	5.224	0.000
39.389	2.785	1.30640	1.312	26.310	5.226	0.000
39.399	2.785	1.30670	1.312	26.310	5.227	0.000
39.409	2.784	1.30700	1.312	26.303	5.228	0.000
39.419	2.785	1.30740	1.313	26.317	5.230	0.000
39.429	2.786	1.30770	1.313	26.324	5.231	0.000
39.44	2.786	1.30810	1.313	26.324	5.232	0.000
39.45	2.787	1.30840	1.314	26.331	5.234	0.000
39.46	2.787	1.30870	1.314	26.331	5.235	0.000
39.47	2.788	1.30910	1.314	26.338	5.236	0.000
39.48	2.788	1.30940	1.315	26.338	5.238	0.000
39.49	2.788	1.30970	1.315	26.345	5.239	0.000
39.5	2.788	1.31010	1.315	26.345	5.240	0.000
39.51	2.788	1.31040	1.316	26.345	5.242	0.000
39.52	2.789	1.31070	1.316	26.352	5.243	0.000
39.53	2.789	1.31110	1.316	26.352	5.244	0.000
39.54	2.790	1.31140	1.317	26.359	5.246	0.000
39.55	2.791	1.31170	1.317	26.366	5.247	0.000
39.56	2.791	1.31210	1.317	26.373	5.248	0.000
39.57	2.791	1.31240	1.318	26.373	5.250	0.000
39.58	2.791	1.31270	1.318	26.373	5.251	0.000
39.59	2.791	1.31310	1.318	26.366	5.252	0.000
39.6	2.791	1.31340	1.319	26.366	5.254	0.000
39.609	2.791	1.31370	1.319	26.373	5.255	0.000
39.619	2.791	1.31400	1.319	26.373	5.256	0.000
39.629	2.791	1.31440	1.320	26.373	5.258	0.000
39.639	2.792	1.31470	1.320	26.380	5.259	0.000
39.649	2.793	1.31500	1.320	26.387	5.260	0.000
39.659	2.793	1.31540	1.321	26.394	5.262	0.000
39.669	2.793	1.31570	1.321	26.394	5.263	0.000
39.679	2.793	1.31600	1.321	26.394	5.264	0.000
39.69	2.795	1.31640	1.322	26.408	5.266	0.000
39.7	2.794	1.31670	1.322	26.401	5.267	0.000
39.71	2.794	1.31710	1.322	26.401	5.268	0.000
39.72	2.796	1.31740	1.323	26.415	5.270	0.000
39.73	2.796	1.31770	1.323	26.415	5.271	0.000
39.74	2.795	1.31810	1.323	26.408	5.272	0.000
39.75	2.794	1.31840	1.324	26.401	5.274	0.000
39.76	2.795	1.31870	1.324	26.408	5.275	0.000
39.77	2.795	1.31910	1.324	26.408	5.276	0.000
39.78	2.794	1.31940	1.325	26.401	5.278	0.000
39.79	2.796	1.31970	1.325	26.415	5.279	0.000
39.8	2.796	1.32010	1.325	26.422	5.280	0.000
39.81	2.796	1.32040	1.326	26.422	5.282	0.000
39.82	2.796	1.32070	1.326	26.415	5.283	0.000
39.83	2.796	1.32110	1.326	26.415	5.284	0.000
39.84	2.798	1.32140	1.327	26.436	5.286	0.000
39.85	2.799	1.32170	1.327	26.443	5.287	0.000
39.859	2.798	1.32200	1.327	26.436	5.288	0.000
39.869	2.799	1.32240	1.328	26.443	5.290	0.000
39.879	2.799	1.32270	1.328	26.450	5.291	0.000
39.889	2.799	1.32300	1.328	26.443	5.292	0.000
39.899	2.799	1.32340	1.329	26.450	5.294	0.000
39.909	2.801	1.32370	1.329	26.464	5.295	0.000
39.919	2.800	1.32400	1.329	26.457	5.296	0.000
39.929	2.800	1.32440	1.330	26.457	5.298	0.000
39.94	2.802	1.32470	1.330	26.471	5.299	0.000
39.95	2.801	1.32510	1.330	26.464	5.300	0.000
39.96	2.802	1.32540	1.331	26.471	5.302	0.000
39.97	2.803	1.32570	1.331	26.485	5.303	0.000
39.98	2.802	1.32610	1.331	26.478	5.304	0.000
39.99	2.803	1.32640	1.332	26.485	5.306	0.000
40	2.804	1.32670	1.332	26.492	5.307	0.000
40.01	2.804	1.32710	1.332	26.492	5.308	0.000
40.02	2.804	1.32740	1.333	26.492	5.310	0.000
40.03	2.804	1.32770	1.333	26.492	5.311	0.000
40.04	2.805	1.32810	1.333	26.498	5.312	0.000
40.05	2.805	1.32840	1.334	26.506	5.314	0.000
40.06	2.806	1.32870	1.334	26.513	5.315	0.000
40.07	2.807	1.32910	1.334	26.520	5.316	0.000
40.08	2.806	1.32940	1.335	26.513	5.318	0.000
40.09	2.806	1.32970	1.335	26.513	5.319	0.000
40.1	2.808	1.33010	1.335	26.527	5.320	0.000
40.109	2.808	1.33040	1.336	26.527	5.322	0.000
40.119	2.808	1.33070	1.336	26.533	5.323	0.000
40.129	2.808	1.33100	1.336	26.533	5.324	0.000
40.139	2.808	1.33140	1.337	26.533	5.326	0.000
40.149	2.808	1.33170	1.337	26.533	5.327	0.000
40.159	2.808	1.33200	1.337	26.533	5.328	0.000
40.169	2.810	1.33240	1.338	26.548	5.330	0.000
40.179	2.810	1.33270	1.338	26.548	5.331	0.000
40.19	2.810	1.33310	1.338	26.548	5.332	0.000
40.2	2.811	1.33340	1.339	26.555	5.334	0.000
40.21	2.811	1.33370	1.339	26.562	5.335	0.000
40.22	2.812	1.33410	1.339	26.568	5.336	0.000
40.23	2.813	1.33440	1.340	26.576	5.338	0.000
40.24	2.813	1.33470	1.340	26.576	5.339	0.000
40.25	2.813	1.33510	1.340	26.576	5.340	0.000
40.26	2.813	1.33540	1.341	26.583	5.342	0.000
40.27	2.813	1.33570	1.341	26.583	5.343	0.000
40.28	2.814	1.33610	1.341	26.590	5.344	0.000
40.29	2.814	1.33640	1.342	26.590	5.346	0.000
40.3	2.814	1.33670	1.342	26.590	5.347	0.000
40.31	2.816	1.33710	1.342	26.603	5.348	0.000
40.32	2.815	1.33740	1.343	26.597	5.350	0.000
40.33	2.815	1.33770	1.343	26.597	5.351	0.000
40.34	2.817	1.33810	1.343	26.618	5.352	0.000
40.35	2.816	1.33840	1.344	26.611	5.354	0.000
40.359	2.816	1.33870	1.344	26.611	5.355	0.000
40.369	2.818	1.33900	1.344	26.625	5.356	0.000
40.379	2.818	1.33940	1.345	26.625	5.358	0.000
40.389	2.817	1.33970	1.345	26.618	5.359	0.000
40.399	2.819	1.34000	1.345	26.632	5.360	0.000
40.409	2.819	1.34040	1.346	26.638	5.362	0.000
40.419	2.819	1.34070	1.346	26.638	5.363	0.000
40.429	2.819	1.34100	1.346	26.638	5.364	0.000
40.44	2.819	1.34140	1.347	26.638	5.366	0.000
40.45	2.820	1.34170	1.347	26.646	5.367	0.000
40.46	2.820	1.34210	1.347	26.646	5.368	0.000
40.47	2.821	1.34240	1.348	26.652	5.370	0.000
40.48	2.822	1.34270	1.348	26.660	5.371	0.000
40.49	2.822	1.34310	1.348	26.667	5.372	0.000
40.5	2.822	1.34340	1.349	26.660	5.374	0.000
40.51	2.822	1.34370	1.349	26.660	5.375	0.000
40.52	2.822	1.34410	1.349	26.667	5.376	0.000
40.53	2.823	1.34440	1.350	26.673	5.378	0.000
40.54	2.825	1.34470	1.350	26.687	5.379	0.000
40.55	2.824	1.34510	1.350	26.681	5.380	0.000
40.56	2.824	1.34540	1.351	26.681	5.382	0.000
40.57	2.825	1.34570	1.351	26.695	5.383	0.000
40.58	2.825	1.34610	1.351	26.687	5.384	0.000
40.59	2.825	1.34640	1.352	26.695	5.386	0.000
40.6	2.826	1.34670	1.352	26.702	5.387	0.000
40.609	2.827	1.34700	1.352	26.708	5.388	0.000
40.619	2.828	1.34740	1.353	26.722	5.390	0.000
40.629	2.828	1.34770	1.353	26.716	5.391	0.000
40.639	2.827	1.34800	1.353	26.708	5.392	0.000
40.649	2.828	1.34840	1.354	26.722	5.394	0.000
40.659	2.828	1.34870	1.354	26.716	5.395	0.000
40.669	2.828	1.34900	1.354	26.722	5.396	0.000
40.679	2.830	1.34940	1.355	26.743	5.398	0.000
40.69	2.830	1.34970	1.355	26.737	5.399	0.000
40.7	2.830	1.35010	1.356	26.737	5.400	0.000
40.71	2.830	1.35040	1.356	26.737	5.402	0.000
40.72	2.830	1.35070	1.356	26.743	5.403	0.000
40.73	2.831	1.35110	1.356	26.751	5.404	0.000
40.74	2.832	1.35140	1.357	26.757	5.406	0.000
40.75	2.832	1.35170	1.357	26.757	5.407	0.000
40.76	2.832	1.35210	1.357	26.757	5.408	0.000
40.77	2.833	1.35240	1.358	26.772	5.410	0.000
40.78	2.834	1.35270	1.358	26.778	5.411	0.000
40.79	2.833	1.35310	1.358	26.772	5.412	0.000
40.8	2.833	1.35340	1.359	26.772	5.414	0.000
40.81	2.834	1.35370	1.359	26.778	5.415	0.000
40.82	2.835	1.35410	1.359	26.786	5.416	0.000
40.83	2.835	1.35440	1.360	26.786	5.418	0.000
40.84	2.836	1.35470	1.360	26.792	5.419	0.000
40.85	2.836	1.35510	1.360	26.800	5.420	0.000
40.859	2.836	1.35540	1.361	26.792	5.422	0.000
40.869	2.836	1.35570	1.361	26.800	5.423	0.000
40.879	2.836	1.35600	1.361	26.800	5.424	0.000
40.889	2.836	1.35640	1.362	26.800	5.426	0.000
40.899	2.839	1.35670	1.362	26.821	5.427	0.000
40.909	2.839	1.35700	1.362	26.821	5.428	0.000
40.919	2.838	1.35740	1.363	26.813	5.430	0.000
40.929	2.839	1.35770	1.363	26.821	5.431	0.000
40.94	2.839	1.35810	1.363	26.827	5.432	0.000
40.95	2.839	1.35840	1.364	26.827	5.434	0.000
40.96	2.839	1.35870	1.364	26.827	5.435	0.000
40.97	2.841	1.35910	1.364	26.841	5.436	0.000
40.98	2.842	1.35940	1.365	26.848	5.438	0.000
40.99	2.842	1.35970	1.365	26.848	5.439	0.000
41	2.842	1.36010	1.365	26.856	5.440	0.000
41.01	2.842	1.36040	1.366	26.856	5.442	0.000
41.02	2.842	1.36070	1.366	26.848	5.443	0.000
41.03	2.842	1.36110	1.366	26.856	5.444	0.000
41.04	2.843	1.36140	1.367	26.862	5.446	0.000
41.05	2.844	1.36170	1.367	26.870	5.447	0.000
41.06	2.845	1.36210	1.367	26.876	5.448	0.000
41.07	2.845	1.36240	1.368	26.876	5.450	0.000
41.08	2.845	1.36270	1.368	26.883	5.451	0.000
41.09	2.845	1.36310	1.368	26.883	5.452	0.000
41.1	2.845	1.36340	1.369	26.883	5.454	0.000
41.109	2.847	1.36370	1.369	26.897	5.455	0.000
41.119	2.848	1.36400	1.369	26.905	5.456	0.000
41.129	2.847	1.36440	1.370	26.897	5.458	0.000
41.139	2.846	1.36470	1.370	26.891	5.459	0.000
41.149	2.848	1.36500	1.370	26.905	5.460	0.000
41.159	2.849	1.36540	1.371	26.918	5.462	0.000
41.169	2.848	1.36570	1.371	26.911	5.463	0.000
41.179	2.849	1.36600	1.371	26.918	5.464	0.000
41.19	2.850	1.36640	1.372	26.926	5.466	0.000
41.2	2.850	1.36670	1.372	26.926	5.467	0.000
41.21	2.850	1.36710	1.372	26.926	5.468	0.000
41.22	2.851	1.36740	1.373	26.932	5.470	0.000
41.23	2.851	1.36770	1.373	26.940	5.471	0.000
41.24	2.851	1.36810	1.373	26.932	5.472	0.000
41.25	2.851	1.36840	1.374	26.940	5.474	0.000
41.26	2.852	1.36870	1.374	26.946	5.475	0.000
41.27	2.853	1.36910	1.374	26.954	5.476	0.000
41.28	2.853	1.36940	1.375	26.961	5.478	0.000
41.29	2.853	1.36970	1.375	26.961	5.479	0.000
41.3	2.854	1.37010	1.375	26.967	5.480	0.000
41.31	2.854	1.37040	1.376	26.967	5.482	0.000
41.32	2.854	1.37070	1.376	26.967	5.483	0.000
41.33	2.855	1.37110	1.376	26.975	5.484	0.000
41.34	2.855	1.37140	1.377	26.975	5.486	0.000
41.35	2.855	1.37170	1.377	26.975	5.487	0.000
41.359	2.856	1.37200	1.377	26.981	5.488	0.000
41.369	2.856	1.37240	1.378	26.989	5.490	0.000
41.379	2.856	1.37270	1.378	26.989	5.491	0.000
41.389	2.856	1.37300	1.378	26.989	5.492	0.000
41.399	2.858	1.37340	1.379	27.002	5.494	0.000
41.409	2.858	1.37370	1.379	27.002	5.495	0.000
41.419	2.857	1.37400	1.379	26.995	5.496	0.000
41.429	2.859	1.37440	1.380	27.010	5.498	0.000
41.44	2.859	1.37470	1.380	27.016	5.499	0.000
41.45	2.859	1.37510	1.380	27.010	5.500	0.000
41.46	2.859	1.37540	1.381	27.016	5.502	0.000
41.47	2.860	1.37570	1.381	27.024	5.503	0.000
41.48	2.860	1.37610	1.381	27.024	5.504	0.000
41.49	2.861	1.37640	1.382	27.030	5.506	0.000
41.5	2.861	1.37670	1.382	27.030	5.507	0.000
41.51	2.862	1.37710	1.382	27.037	5.508	0.000
41.52	2.862	1.37740	1.383	27.045	5.510	0.000
41.53	2.862	1.37770	1.383	27.045	5.511	0.000
41.54	2.862	1.37810	1.383	27.045	5.512	0.000
41.55	2.863	1.37840	1.384	27.051	5.514	0.000
41.56	2.863	1.37870	1.384	27.051	5.515	0.000
41.57	2.862	1.37910	1.384	27.037	5.516	0.000
41.58	2.863	1.37940	1.385	27.051	5.518	0.000
41.59	2.864	1.37970	1.385	27.059	5.519	0.000
41.6	2.863	1.38010	1.385	27.051	5.520	0.000
41.609	2.863	1.38040	1.386	27.051	5.522	0.000
41.619	2.863	1.38070	1.386	27.051	5.523	0.000
41.629	2.864	1.38100	1.386	27.059	5.524	0.000
41.639	2.865	1.38140	1.387	27.065	5.526	0.000
41.649	2.865	1.38170	1.387	27.065	5.527	0.000
41.659	2.864	1.38200	1.387	27.059	5.528	0.000
41.669	2.865	1.38240	1.388	27.065	5.530	0.000
41.679	2.865	1.38270	1.388	27.072	5.531	0.000
41.69	2.866	1.38310	1.388	27.080	5.532	0.000
41.7	2.865	1.38340	1.389	27.065	5.534	0.000
41.71	2.865	1.38370	1.389	27.065	5.535	0.000
41.72	2.868	1.38410	1.389	27.094	5.536	0.000
41.73	2.868	1.38440	1.390	27.094	5.538	0.000
41.74	2.867	1.38470	1.390	27.086	5.539	0.000
41.75	2.867	1.38510	1.390	27.086	5.540	0.000
41.76	2.868	1.38540	1.391	27.100	5.542	0.000
41.77	2.869	1.38570	1.391	27.107	5.543	0.000
41.78	2.868	1.38610	1.391	27.100	5.544	0.000
41.79	2.868	1.38640	1.392	27.100	5.546	0.000
41.8	2.869	1.38670	1.392	27.107	5.547	0.000
41.81	2.870	1.38710	1.392	27.115	5.548	0.000
41.82	2.871	1.38740	1.393	27.121	5.550	0.000
41.83	2.870	1.38770	1.393	27.115	5.551	0.000
41.84	2.870	1.38810	1.393	27.115	5.552	0.000
41.85	2.871	1.38840	1.394	27.121	5.554	0.000
41.859	2.871	1.38870	1.394	27.121	5.555	0.000
41.869	2.871	1.38900	1.394	27.121	5.556	0.000
41.879	2.871	1.38940	1.395	27.129	5.558	0.000
41.889	2.872	1.38970	1.395	27.135	5.559	0.000
41.899	2.871	1.39000	1.395	27.129	5.560	0.000
41.909	2.872	1.39040	1.396	27.135	5.562	0.000
41.919	2.873	1.39070	1.396	27.142	5.563	0.000
41.929	2.872	1.39100	1.396	27.135	5.564	0.000
41.94	2.872	1.39140	1.397	27.135	5.566	0.000
41.95	2.874	1.39170	1.397	27.149	5.567	0.000
41.96	2.874	1.39200	1.397	27.156	5.568	0.000
41.97	2.874	1.39240	1.398	27.156	5.570	0.000
41.98	2.874	1.39270	1.398	27.149	5.571	0.000
41.99	2.874	1.39300	1.398	27.149	5.572	0.000
42	2.875	1.39340	1.399	27.164	5.574	0.000
42.01	2.875	1.39370	1.399	27.164	5.575	0.000
42.02	2.875	1.39400	1.399	27.164	5.576	0.000
42.03	2.876	1.39440	1.400	27.177	5.578	0.000
42.04	2.876	1.39470	1.400	27.170	5.579	0.000
42.05	2.876	1.39510	1.400	27.170	5.580	0.000
42.06	2.875	1.39540	1.401	27.164	5.582	0.000
42.07	2.872	1.39570	1.401	27.135	5.583	0.000
42.08	2.870	1.39610	1.401	27.115	5.584	0.000
42.09	2.869	1.39640	1.402	27.107	5.586	0.000
42.1	2.867	1.39670	1.402	27.086	5.587	0.000
42.109	1.606	1.39700	1.402	15.176	5.588	0.000
42.119	0.098	1.39740	1.403	0.923	5.590	0.000
42.129	0.124	1.39770	1.403	1.175	5.591	0.000
42.139	0.093	1.39800	1.404	0.874	5.592	0.000
